"SPL Horizontal"																																																																							
"On-Axis"		"10°"		"-10°"		"20°"		"-20°"		"30°"		"-30°"		"40°"		"-40°"		"50°"		"-50°"		"60°"		"-60°"		"70°"		"-70°"		"80°"		"-80°"		"90°"		"-90°"		"100°"		"-100°"		"110°"		"-110°"		"120°"		"-120°"		"130°"		"-130°"		"140°"		"-140°"		"150°"		"-150°"		"160°"		"-160°"		"170°"		"-170°"		"180°"	
"Frequency [Hz]"	"Sound Pessure Level [dB]  / [2.83V 1m] "	"Frequency [Hz]"	"Sound Pessure Level [dB]  / [2.83V 1m] "	"Frequency [Hz]"	"Sound Pessure Level [dB]  / [2.83V 1m] "	"Frequency [Hz]"	"Sound Pessure Level [dB]  / [2.83V 1m] "	"Frequency [Hz]"	"Sound Pessure Level [dB]  / [2.83V 1m] "	"Frequency [Hz]"	"Sound Pessure Level [dB]  / [2.83V 1m] "	"Frequency [Hz]"	"Sound Pessure Level [dB]  / [2.83V 1m] "	"Frequency [Hz]"	"Sound Pessure Level [dB]  / [2.83V 1m] "	"Frequency [Hz]"	"Sound Pessure Level [dB]  / [2.83V 1m] "	"Frequency [Hz]"	"Sound Pessure Level [dB]  / [2.83V 1m] "	"Frequency [Hz]"	"Sound Pessure Level [dB]  / [2.83V 1m] "	"Frequency [Hz]"	"Sound Pessure Level [dB]  / [2.83V 1m] "	"Frequency [Hz]"	"Sound Pessure Level [dB]  / [2.83V 1m] "	"Frequency [Hz]"	"Sound Pessure Level [dB]  / [2.83V 1m] "	"Frequency [Hz]"	"Sound Pessure Level [dB]  / [2.83V 1m] "	"Frequency [Hz]"	"Sound Pessure Level [dB]  / [2.83V 1m] "	"Frequency [Hz]"	"Sound Pessure Level [dB]  / [2.83V 1m] "	"Frequency [Hz]"	"Sound Pessure Level [dB]  / [2.83V 1m] "	"Frequency [Hz]"	"Sound Pessure Level [dB]  / [2.83V 1m] "	"Frequency [Hz]"	"Sound Pessure Level [dB]  / [2.83V 1m] "	"Frequency [Hz]"	"Sound Pessure Level [dB]  / [2.83V 1m] "	"Frequency [Hz]"	"Sound Pessure Level [dB]  / [2.83V 1m] "	"Frequency [Hz]"	"Sound Pessure Level [dB]  / [2.83V 1m] "	"Frequency [Hz]"	"Sound Pessure Level [dB]  / [2.83V 1m] "	"Frequency [Hz]"	"Sound Pessure Level [dB]  / [2.83V 1m] "	"Frequency [Hz]"	"Sound Pessure Level [dB]  / [2.83V 1m] "	"Frequency [Hz]"	"Sound Pessure Level [dB]  / [2.83V 1m] "	"Frequency [Hz]"	"Sound Pessure Level [dB]  / [2.83V 1m] "	"Frequency [Hz]"	"Sound Pessure Level [dB]  / [2.83V 1m] "	"Frequency [Hz]"	"Sound Pessure Level [dB]  / [2.83V 1m] "	"Frequency [Hz]"	"Sound Pessure Level [dB]  / [2.83V 1m] "	"Frequency [Hz]"	"Sound Pessure Level [dB]  / [2.83V 1m] "	"Frequency [Hz]"	"Sound Pessure Level [dB]  / [2.83V 1m] "	"Frequency [Hz]"	"Sound Pessure Level [dB]  / [2.83V 1m] "	"Frequency [Hz]"	"Sound Pessure Level [dB]  / [2.83V 1m] "	"Frequency [Hz]"	"Sound Pessure Level [dB]  / [2.83V 1m] "
20.5078	50.6146	20.5078	50.3434	20.5078	50.5382	20.5078	49.691	20.5078	50.1076	20.5078	48.5687	20.5078	49.2753	20.5078	46.7896	20.5078	47.9378	20.5078	43.9459	20.5078	45.9068	20.5078	39.1479	20.5078	42.9443	20.5078	35.7247	20.5078	39.9813	20.5078	42.3796	20.5078	41.961	20.5078	47.3481	20.5078	46.305	20.5078	50.7427	20.5078	49.806	20.5078	53.2548	20.5078	52.4786	20.5078	55.1914	20.5078	54.5596	20.5078	56.7029	20.5078	56.1972	20.5078	57.8695	20.5078	57.4765	20.5078	58.7361	20.5078	58.4472	20.5078	59.3282	20.5078	59.1381	20.5078	59.6601	20.5078	59.5658	20.5078	59.7388
21.9727	52.3796	21.9727	52.1573	21.9727	52.3391	21.9727	51.6673	21.9727	52.04	21.9727	50.9142	21.9727	51.4906	21.9727	49.9548	21.9727	50.7287	21.9727	49.0135	21.9727	49.8894	21.9727	48.6411	21.9727	49.3254	21.9727	49.4293	21.9727	49.5774	21.9727	51.1983	21.9727	50.8403	21.9727	53.2793	21.9727	52.6827	21.9727	55.2579	21.9727	54.6129	21.9727	56.9965	21.9727	56.389	21.9727	58.4705	21.9727	57.9339	21.9727	59.6869	21.9727	59.2339	21.9727	60.6581	21.9727	60.2933	21.9727	61.3944	21.9727	61.1197	21.9727	61.9028	21.9727	61.7193	21.9727	62.188	21.9727	62.096	21.9727	62.2521
23.4375	54.9085	23.4375	54.706	23.4375	54.8843	23.4375	54.2716	23.4375	54.6361	23.4375	53.603	23.4375	54.1666	23.4375	52.7233	23.4375	53.4917	23.4375	51.7434	23.4375	52.6751	23.4375	50.9881	23.4375	51.9048	23.4375	51.0198	23.4375	51.5708	23.4375	52.1241	23.4375	52.0899	23.4375	53.8927	23.4375	53.4313	23.4375	55.7858	23.4375	55.1548	23.4375	57.5287	23.4375	56.8849	23.4375	59.033	23.4375	58.4467	23.4375	60.2826	23.4375	59.7819	23.4375	61.282	23.4375	60.8775	23.4375	62.0393	23.4375	61.7348	23.4375	62.5613	23.4375	62.358	23.4375	62.8525	23.4375	62.7508	23.4375	62.9154
24.9023	56.666	24.9023	56.5246	24.9023	56.6444	24.9023	56.2283	24.9023	56.4638	24.9023	55.8041	24.9023	56.1418	24.9023	55.3186	24.9023	55.7224	24.9023	54.9086	24.9023	55.3002	24.9023	54.793	24.9023	55.0443	24.9023	55.1867	24.9023	55.1731	24.9023	56.1246	24.9023	55.8236	24.9023	57.4235	24.9023	56.9257	24.9023	58.8451	24.9023	58.2668	24.9023	60.2212	24.9023	59.6455	24.9023	61.4624	24.9023	60.936	24.9023	62.5277	24.9023	62.0742	24.9023	63.3997	24.9023	63.0303	24.9023	64.071	24.9023	63.7911	24.9023	64.5383	24.9023	64.3506	24.9023	64.8003	24.9023	64.7062	24.9023	64.8562
26.3672	59.1318	26.3672	59.0569	26.3672	59.105	26.3672	58.891	26.3672	58.9804	26.3672	58.6638	26.3672	58.7785	26.3672	58.4318	26.3672	58.543	26.3672	58.2863	26.3672	58.3494	26.3672	58.3443	26.3672	58.3063	26.3672	58.7073	26.3672	58.5295	26.3672	59.4001	26.3672	59.0834	26.3672	60.3506	26.3672	59.9358	26.3672	61.4356	26.3672	60.9775	26.3672	62.5388	26.3672	62.084	26.3672	63.5765	26.3672	63.1564	26.3672	64.4962	26.3672	64.1299	26.3672	65.2669	26.3672	64.9654	26.3672	65.8706	26.3672	65.6403	26.3672	66.2964	26.3672	66.1412	26.3672	66.5383	26.3672	66.4602	26.3672	66.5931
27.832	61.3961	27.832	61.3514	27.832	61.3839	27.832	61.2599	27.832	61.3197	27.832	61.1478	27.832	61.2233	27.832	61.0603	27.832	61.1326	27.832	61.0609	27.832	61.1039	27.832	61.2214	27.832	61.2068	27.832	61.5971	27.832	61.5044	27.832	62.1997	27.832	62.0258	27.832	62.9878	27.832	62.749	27.832	63.8866	27.832	63.6095	27.832	64.8158	27.832	64.5277	27.832	65.7082	27.832	65.4316	27.832	66.5148	27.832	66.2661	27.832	67.2022	27.832	66.9927	27.832	67.7482	27.832	67.5855	27.832	68.1385	27.832	68.0276	27.832	68.3644	27.832	68.3082	27.832	68.4213
29.2969	63.9098	29.2969	63.8907	29.2969	63.909	29.2969	63.8594	29.2969	63.8917	29.2969	63.8354	29.2969	63.8731	29.2969	63.8494	29.2969	63.8794	29.2969	63.9407	29.2969	63.9468	29.2969	64.1497	29.2969	64.1155	29.2969	64.5059	29.2969	64.4196	29.2969	65.0149	29.2969	64.8738	29.2969	65.6544	29.2969	65.4662	29.2969	66.3804	29.2969	66.1601	29.2969	67.1399	29.2969	66.9056	29.2969	67.8824	29.2969	67.6514	29.2969	68.5654	29.2969	68.3525	29.2969	69.1562	29.2969	68.9731	29.2969	69.631	29.2969	69.4865	29.2969	69.9731	29.2969	69.8735	29.2969	70.1719	29.2969	70.1211	29.2969	70.2216
30.7617	65.939	30.7617	65.9263	30.7617	65.9377	30.7617	65.906	30.7617	65.9252	30.7617	65.8945	30.7617	65.9141	30.7617	65.917	30.7617	65.9265	30.7617	66.0063	30.7617	65.9927	30.7617	66.1969	30.7617	66.1473	30.7617	66.5159	30.7617	66.4212	30.7617	66.9729	30.7617	66.8314	30.7617	67.5544	30.7617	67.3725	30.7617	68.2263	30.7617	68.017	30.7617	68.9426	30.7617	68.7219	30.7617	69.6555	30.7617	69.439	30.7617	70.322	30.7617	70.1231	30.7617	70.9067	30.7617	70.736	30.7617	71.382	30.7617	71.2476	30.7617	71.7279	30.7617	71.6353	30.7617	71.9309	30.7617	71.8837	30.7617	71.9835
32.2266	68.2933	32.2266	68.2922	32.2266	68.2968	32.2266	68.2982	32.2266	68.305	32.2266	68.3226	32.2266	68.3269	32.2266	68.3829	32.2266	68.3779	32.2266	68.5008	32.2266	68.4784	32.2266	68.6983	32.2266	68.6507	32.2266	68.9928	32.2266	68.9141	32.2266	69.3908	32.2266	69.2792	32.2266	69.8844	32.2266	69.7429	32.2266	70.4511	32.2266	70.2873	32.2266	71.0584	32.2266	70.883	32.2266	71.6692	32.2266	71.4938	32.2266	72.2472	32.2266	72.0831	32.2266	72.7601	32.2266	72.6171	32.2266	73.1812	32.2266	73.0671	32.2266	73.4901	32.2266	73.4108	32.2266	73.6726	32.2266	73.632	32.2266	73.7206
33.6914	70.5223	33.6914	70.5301	33.6914	70.528	33.6914	70.5547	33.6914	70.5488	33.6914	70.6039	33.6914	70.591	33.6914	70.6891	33.6914	70.6649	33.6914	70.8244	33.6914	70.7838	33.6914	71.0237	33.6914	70.9622	33.6914	71.2977	33.6914	71.2122	33.6914	71.6502	33.6914	71.5402	33.6914	72.0758	33.6914	71.944	33.6914	72.5592	33.6914	72.4113	33.6914	73.0769	33.6914	72.921	33.6914	73.6005	33.6914	73.4455	33.6914	74.1001	33.6914	73.9552	33.6914	74.5472	33.6914	74.4208	33.6914	74.9173	33.6914	74.8162	33.6914	75.1905	33.6914	75.1201	33.6914	75.3526	33.6914	75.3165	33.6914	75.3953
35.1563	72.4411	35.1563	72.4508	35.1563	72.4495	35.1563	72.4808	35.1563	72.4772	35.1563	72.5366	35.1563	72.5285	35.1563	72.6259	35.1563	72.6105	35.1563	72.7584	35.1563	72.7322	35.1563	72.9435	35.1563	72.9032	35.1563	73.1886	35.1563	73.1316	35.1563	73.4966	35.1563	73.4219	35.1563	73.8638	35.1563	73.7723	35.1563	74.2794	35.1563	74.1743	35.1563	74.7255	35.1563	74.6119	35.1563	75.1794	35.1563	75.064	35.1563	75.616	35.1563	75.5058	35.1563	76.01	35.1563	75.9122	35.1563	76.3387	35.1563	76.2594	35.1563	76.5832	35.1563	76.5273	35.1563	76.7294	35.1563	76.7006	35.1563	76.7693
36.6211	74.1051	36.6211	74.1176	36.6211	74.1132	36.6211	74.1521	36.6211	74.1425	36.6211	74.2123	36.6211	74.1961	36.6211	74.3036	36.6211	74.2788	36.6211	74.4325	36.6211	74.3968	36.6211	74.6054	36.6211	74.5565	36.6211	74.8274	36.6211	74.7635	36.6211	75.1004	36.6211	75.0209	36.6211	75.4217	36.6211	75.3276	36.6211	75.7832	36.6211	75.6771	36.6211	76.1712	36.6211	76.0576	36.6211	76.5671	36.6211	76.4519	36.6211	76.9497	36.6211	76.8397	36.6211	77.2969	36.6211	77.1988	36.6211	77.5878	36.6211	77.508	36.6211	77.8045	36.6211	77.7483	36.6211	77.934	36.6211	77.9049	36.6211	77.9681
38.0859	75.4672	38.0859	75.4814	38.0859	75.4757	38.0859	75.5194	38.0859	75.5074	38.0859	75.5836	38.0859	75.5642	38.0859	75.6777	38.0859	75.6493	38.0859	75.8057	38.0859	75.7666	38.0859	75.9719	38.0859	75.9204	38.0859	76.1792	38.0859	76.1141	38.0859	76.4284	38.0859	76.3495	38.0859	76.7171	38.0859	76.6254	38.0859	77.0385	38.0859	76.9366	38.0859	77.3817	38.0859	77.2736	38.0859	77.7315	38.0859	77.6225	38.0859	78.0699	38.0859	77.9661	38.0859	78.3778	38.0859	78.2854	38.0859	78.6365	38.0859	78.5614	38.0859	78.8297	38.0859	78.7767	38.0859	78.945	38.0859	78.9176	38.0859	78.975
39.5508	76.5808	39.5508	76.5957	39.5508	76.5904	39.5508	76.6357	39.5508	76.6246	39.5508	76.7022	39.5508	76.6847	39.5508	76.7976	39.5508	76.7725	39.5508	76.9242	39.5508	76.8903	39.5508	77.0843	39.5508	77.0406	39.5508	77.2796	39.5508	77.2251	39.5508	77.51	39.5508	77.4446	39.5508	77.773	39.5508	77.6973	39.5508	78.063	39.5508	77.9789	39.5508	78.3708	39.5508	78.2813	39.5508	78.6839	39.5508	78.5931	39.5508	78.9869	39.5508	78.8998	39.5508	79.2631	39.5508	79.185	39.5508	79.4957	39.5508	79.4318	39.5508	79.67	39.5508	79.6246	39.5508	79.7744	39.5508	79.7509	39.5508	79.802
41.0156	77.5826	41.0156	77.5987	41.0156	77.5896	41.0156	77.6384	41.0156	77.6199	41.0156	77.7023	41.0156	77.6742	41.0156	77.7918	41.0156	77.7534	41.0156	77.9082	41.0156	77.8591	41.0156	78.0528	41.0156	77.9924	41.0156	78.2264	41.0156	78.1546	41.0156	78.4286	41.0156	78.3458	41.0156	78.6574	41.0156	78.5646	41.0156	78.9081	41.0156	78.8076	41.0156	79.1736	41.0156	79.0686	41.0156	79.4435	41.0156	79.3383	41.0156	79.7049	41.0156	79.605	41.0156	79.9435	41.0156	79.8544	41.0156	80.1445	41.0156	80.0718	41.0156	80.2947	41.0156	80.2433	41.0156	80.3836	41.0156	80.3569	41.0156	80.4049
42.4805	78.2461	42.4805	78.2625	42.4805	78.253	42.4805	78.3022	42.4805	78.2832	42.4805	78.3658	42.4805	78.3369	42.4805	78.4536	42.4805	78.4145	42.4805	78.5664	42.4805	78.5167	42.4805	78.7044	42.4805	78.6438	42.4805	78.8677	42.4805	78.7963	42.4805	79.0555	42.4805	78.9736	42.4805	79.2655	42.4805	79.1744	42.4805	79.4938	42.4805	79.3955	42.4805	79.734	42.4805	79.6317	42.4805	79.9774	42.4805	79.8752	42.4805	80.2127	42.4805	80.1157	42.4805	80.4274	42.4805	80.341	42.4805	80.6083	42.4805	80.5378	42.4805	80.7434	42.4805	80.6935	42.4805	80.823	42.4805	80.7972	42.4805	80.8414
43.9453	78.7766	43.9453	78.7952	43.9453	78.7807	43.9453	78.8366	43.9453	78.8076	43.9453	78.9008	43.9453	78.8574	43.9453	78.9875	43.9453	78.9301	43.9453	79.0967	43.9453	79.0257	43.9453	79.228	43.9453	79.144	43.9453	79.3808	43.9453	79.2848	43.9453	79.5537	43.9453	79.4473	43.9453	79.7448	43.9453	79.6299	43.9453	79.9503	43.9453	79.83	43.9453	80.1649	43.9453	80.0428	43.9453	80.3812	43.9453	80.2619	43.9453	80.5896	43.9453	80.4784	43.9453	80.7792	43.9453	80.6816	43.9453	80.9386	43.9453	80.8598	43.9453	81.057	43.9453	81.0017	43.9453	81.1258	43.9453	81.0972	43.9453	81.1396
45.4102	79.159	45.4102	79.178	45.4102	79.1621	45.4102	79.219	45.4102	79.1873	45.4102	79.2816	45.4102	79.2346	45.4102	79.3652	45.4102	79.3036	45.4102	79.4692	45.4102	79.3938	45.4102	79.5926	45.4102	79.5047	45.4102	79.7344	45.4102	79.6354	45.4102	79.893	45.4102	79.7847	45.4102	80.0663	45.4102	79.9511	45.4102	80.2511	45.4102	80.1318	45.4102	80.4428	45.4102	80.323	45.4102	80.635	45.4102	80.519	45.4102	80.8198	45.4102	80.7123	45.4102	80.9876	45.4102	80.8937	45.4102	81.1286	45.4102	81.053	45.4102	81.2331	45.4102	81.1801	45.4102	81.2934	45.4102	81.2661	45.4102	81.3048
46.875	79.5088	46.875	79.5284	46.875	79.5101	46.875	79.5685	46.875	79.5323	46.875	79.6285	46.875	79.5752	46.875	79.7077	46.875	79.6381	46.875	79.8048	46.875	79.7204	46.875	79.9188	46.875	79.8211	46.875	80.0482	46.875	79.9393	46.875	80.1913	46.875	80.0735	46.875	80.346	46.875	80.2222	46.875	80.5097	46.875	80.383	46.875	80.6783	46.875	80.5526	46.875	80.8467	46.875	80.7262	46.875	81.0082	46.875	80.8975	46.875	81.1546	46.875	81.0586	46.875	81.2773	46.875	81.2005	46.875	81.3679	46.875	81.3143	46.875	81.4196	46.875	81.392	46.875	81.4279
48.3398	79.6701	48.3398	79.6883	48.3398	79.6734	48.3398	79.7277	48.3398	79.6983	48.3398	79.7874	48.3398	79.7441	48.3398	79.8662	48.3398	79.8102	48.3398	79.9627	48.3398	79.8953	48.3398	80.0753	48.3398	79.998	48.3398	80.2022	48.3398	80.1167	48.3398	80.3413	48.3398	80.2496	48.3398	80.4904	48.3398	80.3945	48.3398	80.6466	48.3398	80.5491	48.3398	80.8063	48.3398	80.7098	48.3398	80.9648	48.3398	80.8724	48.3398	81.1161	48.3398	81.0312	48.3398	81.2531	48.3398	81.1793	48.3398	81.368	48.3398	81.3089	48.3398	81.4533	48.3398	81.4119	48.3398	81.5028	48.3398	81.4815	48.3398	81.5125
51.2695	80.1036	51.2695	80.1183	51.2695	80.1079	51.2695	80.1514	51.2695	80.1308	51.2695	80.2022	51.2695	80.1717	51.2695	80.2692	51.2695	80.2292	51.2695	80.3507	51.2695	80.302	51.2695	80.4446	51.2695	80.388	51.2695	80.5489	51.2695	80.4854	51.2695	80.6613	51.2695	80.5921	51.2695	80.7796	51.2695	80.7062	51.2695	80.9014	51.2695	80.8255	51.2695	81.0238	51.2695	80.9477	51.2695	81.1437	51.2695	81.07	51.2695	81.2569	51.2695	81.1885	51.2695	81.3585	51.2695	81.2987	51.2695	81.4433	51.2695	81.3951	51.2695	81.5059	51.2695	81.472	51.2695	81.5418	51.2695	81.5243	51.2695	81.5482
52.7344	80.161	52.7344	80.1771	52.7344	80.1657	52.7344	80.2134	52.7344	80.191	52.7344	80.2688	52.7344	80.236	52.7344	80.3416	52.7344	80.2993	52.7344	80.4296	52.7344	80.3791	52.7344	80.5305	52.7344	80.4729	52.7344	80.6415	52.7344	80.5784	52.7344	80.7601	52.7344	80.693	52.7344	80.8834	52.7344	80.8139	52.7344	81.0088	52.7344	80.9385	52.7344	81.1334	52.7344	81.0641	52.7344	81.2537	52.7344	81.1875	52.7344	81.3661	52.7344	81.3052	52.7344	81.466	52.7344	81.413	52.7344	81.5487	52.7344	81.5061	52.7344	81.6095	52.7344	81.5797	52.7344	81.6445	52.7344	81.6291	52.7344	81.6513
54.1992	80.1848	54.1992	80.208	54.1992	80.1809	54.1992	80.2498	54.1992	80.1965	54.1992	80.3087	54.1992	80.2307	54.1992	80.3826	54.1992	80.2823	54.1992	80.4689	54.1992	80.3493	54.1992	80.5648	54.1992	80.4294	54.1992	80.6673	54.1992	80.5199	54.1992	80.7734	54.1992	80.6182	54.1992	80.8804	54.1992	80.7217	54.1992	80.9856	54.1992	80.828	54.1992	81.0868	54.1992	80.9346	54.1992	81.1816	54.1992	81.0395	54.1992	81.2676	54.1992	81.14	54.1992	81.3419	54.1992	81.2331	54.1992	81.4012	54.1992	81.3154	54.1992	81.4421	54.1992	81.3827	54.1992	81.4617	54.1992	81.4313	54.1992	81.4581
55.6641	80.4048	55.6641	80.4304	55.6641	80.395	55.6641	80.471	55.6641	80.4011	55.6641	80.525	55.6641	80.4226	55.6641	80.5904	55.6641	80.4585	55.6641	80.6648	55.6641	80.507	55.6641	80.7452	55.6641	80.5661	55.6641	80.829	55.6641	80.6337	55.6641	80.9134	55.6641	80.7074	55.6641	80.9959	55.6641	80.7852	55.6641	81.0746	55.6641	80.8654	55.6641	81.1477	55.6641	80.9462	55.6641	81.2139	55.6641	81.0263	55.6641	81.2717	55.6641	81.1041	55.6641	81.3196	55.6641	81.1776	55.6641	81.3556	55.6641	81.2441	55.6641	81.3775	55.6641	81.3007	55.6641	81.3835	55.6641	81.3443	55.6641	81.3724
58.5938	80.6554	58.5938	80.662	58.5938	80.663	58.5938	80.6825	58.5938	80.6844	58.5938	80.7158	58.5938	80.7187	58.5938	80.7602	58.5938	80.7643	58.5938	80.8135	58.5938	80.8191	58.5938	80.8732	58.5938	80.8805	58.5938	80.9368	58.5938	80.946	58.5938	81.0015	58.5938	81.0129	58.5938	81.0654	58.5938	81.0789	58.5938	81.1265	58.5938	81.1421	58.5938	81.1837	58.5938	81.201	58.5938	81.2364	58.5938	81.2544	58.5938	81.2839	58.5938	81.3017	58.5938	81.3257	58.5938	81.342	58.5938	81.361	58.5938	81.3745	58.5938	81.3885	58.5938	81.3982	58.5938	81.4068	58.5938	81.4119	58.5938	81.4148
60.0586	80.6809	60.0586	80.6861	60.0586	80.6891	60.0586	80.7043	60.0586	80.7104	60.0586	80.7346	60.0586	80.7436	60.0586	80.7752	60.0586	80.7872	60.0586	80.8239	60.0586	80.8388	60.0586	80.8783	60.0586	80.896	60.0586	80.9355	60.0586	80.956	60.0586	80.9931	60.0586	81.0162	60.0586	81.0489	60.0586	81.0741	60.0586	81.101	60.0586	81.128	60.0586	81.1484	60.0586	81.1764	60.0586	81.1908	60.0586	81.2185	60.0586	81.228	60.0586	81.2541	60.0586	81.26	60.0586	81.2831	60.0586	81.2867	60.0586	81.3054	60.0586	81.3076	60.0586	81.3208	60.0586	81.322	60.0586	81.3288	60.0586	81.3292
62.9883	80.7461	62.9883	80.7527	62.9883	80.7525	62.9883	80.772	62.9883	80.7717	62.9883	80.8027	62.9883	80.8025	62.9883	80.8432	62.9883	80.8432	62.9883	80.891	62.9883	80.8917	62.9883	80.9433	62.9883	80.9451	62.9883	80.9974	62.9883	81.0006	62.9883	81.0502	62.9883	81.0553	62.9883	81.0995	62.9883	81.1066	62.9883	81.1434	62.9883	81.1525	62.9883	81.1808	62.9883	81.1916	62.9883	81.2115	62.9883	81.2234	62.9883	81.236	62.9883	81.2481	62.9883	81.255	62.9883	81.2663	62.9883	81.2695	62.9883	81.2789	62.9883	81.28	62.9883	81.2868	62.9883	81.2871	62.9883	81.2906	62.9883	81.2906
64.4531	80.8159	64.4531	80.8236	64.4531	80.822	64.4531	80.8445	64.4531	80.8414	64.4531	80.8774	64.4531	80.8731	64.4531	80.9205	64.4531	80.9153	64.4531	80.9714	64.4531	80.9657	64.4531	81.027	64.4531	81.0216	64.4531	81.0844	64.4531	81.0798	64.4531	81.1405	64.4531	81.1373	64.4531	81.1926	64.4531	81.1914	64.4531	81.2388	64.4531	81.2397	64.4531	81.2777	64.4531	81.2809	64.4531	81.309	64.4531	81.314	64.4531	81.3332	64.4531	81.3394	64.4531	81.3513	64.4531	81.3578	64.4531	81.3643	64.4531	81.3702	64.4531	81.3734	64.4531	81.3778	64.4531	81.3791	64.4531	81.3815	64.4531	81.3818
67.3828	80.864	67.3828	80.8677	67.3828	80.8736	67.3828	80.8843	67.3828	80.896	67.3828	80.9126	67.3828	80.93	67.3828	80.951	67.3828	80.9739	67.3828	80.997	67.3828	81.0253	67.3828	81.0477	67.3828	81.0812	67.3828	81.1001	67.3828	81.1384	67.3828	81.151	67.3828	81.1937	67.3828	81.1975	67.3828	81.244	67.3828	81.2376	67.3828	81.2868	67.3828	81.2699	67.3828	81.3204	67.3828	81.2942	67.3828	81.3441	67.3828	81.3113	67.3828	81.3584	67.3828	81.3227	67.3828	81.3645	67.3828	81.3304	67.3828	81.3645	67.3828	81.3363	67.3828	81.3604	67.3828	81.3419	67.3828	81.3544	67.3828	81.3479
68.8477	80.8665	68.8477	80.868	68.8477	80.8777	68.8477	80.8817	68.8477	80.9009	68.8477	80.9067	68.8477	80.9351	68.8477	80.9413	68.8477	80.9786	68.8477	80.9832	68.8477	81.0288	68.8477	81.0296	68.8477	81.0829	68.8477	81.0775	68.8477	81.1378	68.8477	81.1238	68.8477	81.19	68.8477	81.1656	68.8477	81.2365	68.8477	81.2009	68.8477	81.2747	68.8477	81.2282	68.8477	81.303	68.8477	81.2476	68.8477	81.3205	68.8477	81.26	68.8477	81.328	68.8477	81.2671	68.8477	81.3269	68.8477	81.2714	68.8477	81.3198	68.8477	81.2752	68.8477	81.3093	68.8477	81.2805	68.8477	81.2981	68.8477	81.2881
