"SPL Vertical"																																																																							
"On-Axis"		"10°"		"-10°"		"20°"		"-20°"		"30°"		"-30°"		"40°"		"-40°"		"50°"		"-50°"		"60°"		"-60°"		"70°"		"-70°"		"80°"		"-80°"		"90°"		"-90°"		"100°"		"-100°"		"110°"		"-110°"		"120°"		"-120°"		"130°"		"-130°"		"140°"		"-140°"		"150°"		"-150°"		"160°"		"-160°"		"170°"		"-170°"		"180°"	
"Frequency [Hz]"	"Sound Pessure Level [dB]  / [2.83V 1m] "	"Frequency [Hz]"	"Sound Pessure Level [dB]  / [2.83V 1m] "	"Frequency [Hz]"	"Sound Pessure Level [dB]  / [2.83V 1m] "	"Frequency [Hz]"	"Sound Pessure Level [dB]  / [2.83V 1m] "	"Frequency [Hz]"	"Sound Pessure Level [dB]  / [2.83V 1m] "	"Frequency [Hz]"	"Sound Pessure Level [dB]  / [2.83V 1m] "	"Frequency [Hz]"	"Sound Pessure Level [dB]  / [2.83V 1m] "	"Frequency [Hz]"	"Sound Pessure Level [dB]  / [2.83V 1m] "	"Frequency [Hz]"	"Sound Pessure Level [dB]  / [2.83V 1m] "	"Frequency [Hz]"	"Sound Pessure Level [dB]  / [2.83V 1m] "	"Frequency [Hz]"	"Sound Pessure Level [dB]  / [2.83V 1m] "	"Frequency [Hz]"	"Sound Pessure Level [dB]  / [2.83V 1m] "	"Frequency [Hz]"	"Sound Pessure Level [dB]  / [2.83V 1m] "	"Frequency [Hz]"	"Sound Pessure Level [dB]  / [2.83V 1m] "	"Frequency [Hz]"	"Sound Pessure Level [dB]  / [2.83V 1m] "	"Frequency [Hz]"	"Sound Pessure Level [dB]  / [2.83V 1m] "	"Frequency [Hz]"	"Sound Pessure Level [dB]  / [2.83V 1m] "	"Frequency [Hz]"	"Sound Pessure Level [dB]  / [2.83V 1m] "	"Frequency [Hz]"	"Sound Pessure Level [dB]  / [2.83V 1m] "	"Frequency [Hz]"	"Sound Pessure Level [dB]  / [2.83V 1m] "	"Frequency [Hz]"	"Sound Pessure Level [dB]  / [2.83V 1m] "	"Frequency [Hz]"	"Sound Pessure Level [dB]  / [2.83V 1m] "	"Frequency [Hz]"	"Sound Pessure Level [dB]  / [2.83V 1m] "	"Frequency [Hz]"	"Sound Pessure Level [dB]  / [2.83V 1m] "	"Frequency [Hz]"	"Sound Pessure Level [dB]  / [2.83V 1m] "	"Frequency [Hz]"	"Sound Pessure Level [dB]  / [2.83V 1m] "	"Frequency [Hz]"	"Sound Pessure Level [dB]  / [2.83V 1m] "	"Frequency [Hz]"	"Sound Pessure Level [dB]  / [2.83V 1m] "	"Frequency [Hz]"	"Sound Pessure Level [dB]  / [2.83V 1m] "	"Frequency [Hz]"	"Sound Pessure Level [dB]  / [2.83V 1m] "	"Frequency [Hz]"	"Sound Pessure Level [dB]  / [2.83V 1m] "	"Frequency [Hz]"	"Sound Pessure Level [dB]  / [2.83V 1m] "	"Frequency [Hz]"	"Sound Pessure Level [dB]  / [2.83V 1m] "	"Frequency [Hz]"	"Sound Pessure Level [dB]  / [2.83V 1m] "	"Frequency [Hz]"	"Sound Pessure Level [dB]  / [2.83V 1m] "	"Frequency [Hz]"	"Sound Pessure Level [dB]  / [2.83V 1m] "
20.5078	50.6146	20.5078	49.5097	20.5078	51.3447	20.5078	47.9519	20.5078	51.7271	20.5078	45.789	20.5078	51.7483	20.5078	42.8025	20.5078	51.3509	20.5078	39.3995	20.5078	50.4126	20.5078	39.7688	20.5078	48.6827	20.5078	43.7644	20.5078	45.5781	20.5078	47.3076	20.5078	39.4363	20.5078	50.0554	20.5078	37.7348	20.5078	52.2385	20.5078	46.0842	20.5078	54.0217	20.5078	50.8096	20.5078	55.5021	20.5078	53.8833	20.5078	56.7351	20.5078	56.0343	20.5078	57.7509	20.5078	57.5633	20.5078	58.5623	20.5078	58.6228	20.5078	59.1706	20.5078	59.3023	20.5078	59.5679	20.5078	59.6604	20.5078	59.7388
21.9727	52.3796	21.9727	51.5863	21.9727	52.9399	21.9727	50.6156	21.9727	53.2357	21.9727	49.603	21.9727	53.2352	21.9727	48.8493	21.9727	52.8963	21.9727	48.7952	21.9727	52.1714	21.9727	49.6497	21.9727	51.0508	21.9727	51.1288	21.9727	49.7608	21.9727	52.8151	21.9727	49.243	21.9727	54.4626	21.9727	50.6084	21.9727	55.9767	21.9727	53.1112	21.9727	57.3319	21.9727	55.5813	21.9727	58.5267	21.9727	57.6399	21.9727	59.5636	21.9727	59.2572	21.9727	60.4434	21.9727	60.477	21.9727	61.1626	21.9727	61.348	21.9727	61.7129	21.9727	61.912	21.9727	62.0816	21.9727	62.2037	21.9727	62.2521
23.4375	54.9085	23.4375	54.1801	23.4375	55.4292	23.4375	53.2759	23.4375	55.7206	23.4375	52.2684	23.4375	55.7582	23.4375	51.3302	23.4375	55.5094	23.4375	50.7865	23.4375	54.9364	23.4375	50.9923	23.4375	54.019	23.4375	51.9822	23.4375	52.8486	23.4375	53.4321	23.4375	51.8975	23.4375	55.0052	23.4375	52.1504	23.4375	56.518	23.4375	53.8651	23.4375	57.8979	23.4375	56.0863	23.4375	59.1229	23.4375	58.1194	23.4375	60.1873	23.4375	59.7719	23.4375	61.0889	23.4375	61.0358	23.4375	61.823	23.4375	61.9456	23.4375	62.3813	23.4375	62.54	23.4375	62.7511	23.4375	62.8534	23.4375	62.9154
24.9023	56.666	24.9023	56.1416	24.9023	57.0616	24.9023	55.5465	24.9023	57.2908	24.9023	54.976	24.9023	57.3257	24.9023	54.575	24.9023	57.1465	24.9023	54.5137	24.9023	56.7525	24.9023	54.9022	24.9023	56.1973	24.9023	55.7092	24.9023	55.6656	24.9023	56.7911	24.9023	55.5425	24.9023	57.991	24.9023	56.2128	24.9023	59.1968	24.9023	57.6034	24.9023	60.3432	24.9023	59.2706	24.9023	61.3956	24.9023	60.8575	24.9023	62.3343	24.9023	62.2051	24.9023	63.1459	24.9023	63.2677	24.9023	63.8181	24.9023	64.0457	24.9023	64.3377	24.9023	64.5556	24.9023	64.6895	24.9023	64.8185	24.9023	64.8562
26.3672	59.1318	26.3672	58.7718	26.3672	59.4206	26.3672	58.3915	26.3672	59.6025	26.3672	58.0618	26.3672	59.6552	26.3672	57.8709	26.3672	59.5711	26.3672	57.9066	26.3672	59.3685	26.3672	58.2227	26.3672	59.115	26.3672	58.8118	26.3672	58.9568	26.3672	59.6114	26.3672	59.1082	26.3672	60.5368	26.3672	59.7312	26.3672	61.5105	26.3672	60.7796	26.3672	62.4744	26.3672	62.0365	26.3672	63.3887	26.3672	63.283	26.3672	64.2258	26.3672	64.3832	26.3672	64.9648	26.3672	65.2741	26.3672	65.5881	26.3672	65.9352	26.3672	66.0787	26.3672	66.3673	26.3672	66.4195	26.3672	66.5815	26.3672	66.5931
27.832	61.3961	27.832	61.1581	27.832	61.6012	27.832	60.9284	27.832	61.7442	27.832	60.758	27.832	61.8086	27.832	60.7034	27.832	61.7945	27.832	60.8145	27.832	61.7278	27.832	61.1195	27.832	61.6723	27.832	61.6147	27.832	61.7362	27.832	62.2665	27.832	62.0451	27.832	63.0255	27.832	62.6707	27.832	63.8401	27.832	63.5688	27.832	64.6655	27.832	64.6059	27.832	65.4659	27.832	65.6388	27.832	66.2132	27.832	66.5639	27.832	66.8843	27.832	67.3225	27.832	67.4591	27.832	67.8886	27.832	67.9188	27.832	68.2561	27.832	68.2454	27.832	68.4298	27.832	68.4213
29.2969	63.9098	29.2969	63.7519	29.2969	64.0636	29.2969	63.6178	29.2969	64.1933	29.2969	63.5402	29.2969	64.2891	29.2969	63.5525	29.2969	64.3552	29.2969	63.6829	29.2969	64.415	29.2969	63.9474	29.2969	64.5147	29.2969	64.346	29.2969	64.7195	29.2969	64.8623	29.2969	65.0929	29.2969	65.469	29.2969	65.663	29.2969	66.1335	29.2969	66.3987	29.2969	66.8232	29.2969	67.2219	29.2969	67.5086	29.2969	68.042	29.2969	68.1633	29.2969	68.7834	29.2969	68.764	29.2969	69.3958	29.2969	69.2894	29.2969	69.8514	29.2969	69.7197	29.2969	70.1394	29.2969	70.0363	29.2969	70.2602	29.2969	70.2216
30.7617	65.939	30.7617	65.7911	30.7617	66.0906	30.7617	65.6728	30.7617	66.2258	30.7617	65.6129	30.7617	66.3319	30.7617	65.6398	30.7617	66.4074	30.7617	65.7764	30.7617	66.466	30.7617	66.035	30.7617	66.5416	30.7617	66.4149	30.7617	66.6894	30.7617	66.902	30.7617	66.9744	30.7617	67.4729	30.7617	67.4431	30.7617	68.0994	30.7617	68.0918	30.7617	68.7524	30.7617	68.8613	30.7617	69.4045	30.7617	69.6632	30.7617	70.0302	30.7617	70.4129	30.7617	70.6062	30.7617	71.0487	30.7617	71.1103	30.7617	71.5337	30.7617	71.5212	30.7617	71.8512	30.7617	71.8187	30.7617	71.9987	30.7617	71.9835
32.2266	68.2933	32.2266	68.1815	32.2266	68.4192	32.2266	68.1013	32.2266	68.5455	32.2266	68.0721	32.2266	68.6641	32.2266	68.1125	32.2266	68.7754	32.2266	68.238	32.2266	68.8909	32.2266	68.4576	32.2266	69.0351	32.2266	68.7723	32.2266	69.244	32.2266	69.175	32.2266	69.5564	32.2266	69.6513	32.2266	69.9968	32.2266	70.1819	32.2266	70.5588	32.2266	70.7449	32.2266	71.2017	32.2266	71.3175	32.2266	71.8641	32.2266	71.8769	32.2266	72.4829	32.2266	72.401	32.2266	73.0077	32.2266	72.868	32.2266	73.4051	32.2266	73.2567	32.2266	73.6578	32.2266	73.5471	32.2266	73.7613	32.2266	73.7206
33.6914	70.5223	33.6914	70.4337	33.6914	70.6315	33.6914	70.3775	33.6914	70.7521	33.6914	70.3666	33.6914	70.8794	33.6914	70.4134	33.6914	71.0145	33.6914	70.5283	33.6914	71.166	33.6914	70.7178	33.6914	71.351	33.6914	70.9837	33.6914	71.5924	33.6914	71.3222	33.6914	71.9129	33.6914	71.7243	33.6914	72.3245	33.6914	72.1769	33.6914	72.8192	33.6914	72.6638	33.6914	73.3665	33.6914	73.1664	33.6914	73.9216	33.6914	73.6653	33.6914	74.4363	33.6914	74.1402	33.6914	74.8699	33.6914	74.5704	33.6914	75.1935	33.6914	74.9358	33.6914	75.3908	33.6914	75.2167	33.6914	75.4568	33.6914	75.3953
35.1563	72.4411	35.1563	72.3569	35.1563	72.5482	35.1563	72.304	35.1563	72.6718	35.1563	72.2915	35.1563	72.8085	35.1563	72.3285	35.1563	72.9592	35.1563	72.4226	35.1563	73.1297	35.1563	72.5792	35.1563	73.3313	35.1563	72.8004	35.1563	73.5786	35.1563	73.0846	35.1563	73.8851	35.1563	73.426	35.1563	74.2571	35.1563	73.8155	35.1563	74.6869	35.1563	74.2404	35.1563	75.1516	35.1563	74.6857	35.1563	75.6171	35.1563	75.1344	35.1563	76.0456	35.1563	75.5681	35.1563	76.4032	35.1563	75.9674	35.1563	76.6646	35.1563	76.313	35.1563	76.8148	35.1563	76.586	35.1563	76.8487	35.1563	76.7693
36.6211	74.1051	36.6211	74.0226	36.6211	74.2119	36.6211	73.9704	36.6211	74.3383	36.6211	73.955	36.6211	74.4818	36.6211	73.9832	36.6211	74.6426	36.6211	74.0605	36.6211	74.8243	36.6211	74.1913	36.6211	75.0339	36.6211	74.3776	36.6211	75.2802	36.6211	74.619	36.6211	75.5711	36.6211	74.9118	36.6211	75.9088	36.6211	75.2496	36.6211	76.2862	36.6211	75.6227	36.6211	76.6853	36.6211	76.019	36.6211	77.0793	36.6211	76.4237	36.6211	77.438	36.6211	76.8205	36.6211	77.7332	36.6211	77.1914	36.6211	77.9431	36.6211	77.518	36.6211	78.0542	36.6211	77.7824	36.6211	78.0617	36.6211	77.9681
38.0859	75.4672	38.0859	75.3869	38.0859	75.5728	38.0859	75.3365	38.0859	75.7005	38.0859	75.3206	38.0859	75.8481	38.0859	75.3441	38.0859	76.0155	38.0859	75.411	38.0859	76.2046	38.0859	75.5247	38.0859	76.4193	38.0859	75.6869	38.0859	76.6646	38.0859	75.8976	38.0859	76.9443	38.0859	76.1546	38.0859	77.258	38.0859	76.4531	38.0859	77.5985	38.0859	76.7857	38.0859	77.9503	38.0859	77.1424	38.0859	78.2916	38.0859	77.5108	38.0859	78.5975	38.0859	77.8762	38.0859	78.8444	38.0859	78.2224	38.0859	79.0136	38.0859	78.532	38.0859	79.0934	38.0859	78.7882	38.0859	79.0796	38.0859	78.975
39.5508	76.5808	39.5508	76.5005	39.5508	76.6876	39.5508	76.45	39.5508	76.8184	39.5508	76.4327	39.5508	76.9712	39.5508	76.4519	39.5508	77.1455	39.5508	76.5108	39.5508	77.3417	39.5508	76.6115	39.5508	77.5615	39.5508	76.7556	39.5508	77.807	39.5508	76.9431	39.5508	78.0788	39.5508	77.1725	39.5508	78.3744	39.5508	77.4401	39.5508	78.6863	39.5508	77.7402	39.5508	79.0007	39.5508	78.0648	39.5508	79.2991	39.5508	78.4031	39.5508	79.5609	39.5508	78.7423	39.5508	79.7663	39.5508	79.0677	39.5508	79.8996	39.5508	79.3633	39.5508	79.9511	39.5508	79.6131	39.5508	79.9175	39.5508	79.802
41.0156	77.5826	41.0156	77.4977	41.0156	77.6928	41.0156	77.4406	41.0156	77.8263	41.0156	77.4135	41.0156	77.9812	41.0156	77.4191	41.0156	78.1564	41.0156	77.4595	41.0156	78.3513	41.0156	77.5368	41.0156	78.5656	41.0156	77.6523	41.0156	78.7991	41.0156	77.8066	41.0156	79.0505	41.0156	77.9991	41.0156	79.3161	41.0156	78.2276	41.0156	79.5886	41.0156	78.4883	41.0156	79.8566	41.0156	78.7747	41.0156	80.1048	41.0156	79.0782	41.0156	80.3164	41.0156	79.3877	41.0156	80.4753	41.0156	79.6899	41.0156	80.5687	41.0156	79.9702	41.0156	80.5886	41.0156	80.2133	41.0156	80.5328	41.0156	80.4049
42.4805	78.2461	42.4805	78.1551	42.4805	78.3626	42.4805	78.0915	42.4805	78.5025	42.4805	78.0574	42.4805	78.6639	42.4805	78.0545	42.4805	78.845	42.4805	78.0848	42.4805	79.044	42.4805	78.1498	42.4805	79.2593	42.4805	78.2506	42.4805	79.4891	42.4805	78.3879	42.4805	79.7305	42.4805	78.5613	42.4805	79.9791	42.4805	78.7691	42.4805	80.2276	42.4805	79.0082	42.4805	80.4659	42.4805	79.2733	42.4805	80.6811	42.4805	79.5568	42.4805	80.8591	42.4805	79.8488	42.4805	80.9863	42.4805	80.1371	42.4805	81.052	42.4805	80.4081	42.4805	81.0498	42.4805	80.6475	42.4805	80.9783	42.4805	80.8414
43.9453	78.7766	43.9453	78.6818	43.9453	78.8965	43.9453	78.6139	43.9453	79.0397	43.9453	78.5745	43.9453	79.204	43.9453	78.5648	43.9453	79.3872	43.9453	78.5862	43.9453	79.5866	43.9453	78.6399	43.9453	79.7995	43.9453	78.7266	43.9453	80.0228	43.9453	78.847	43.9453	80.2526	43.9453	79.0009	43.9453	80.4838	43.9453	79.1872	43.9453	80.7094	43.9453	79.4036	43.9453	80.9203	43.9453	79.6456	43.9453	81.1052	43.9453	79.9071	43.9453	81.2524	43.9453	80.1795	43.9453	81.3506	43.9453	80.4517	43.9453	81.3911	43.9453	80.7114	43.9453	81.369	43.9453	80.945	43.9453	81.2837	43.9453	81.1396
45.4102	79.159	45.4102	79.0598	45.4102	79.2828	45.4102	78.9868	45.4102	79.4294	45.4102	78.9412	45.4102	79.5964	45.4102	78.9241	45.4102	79.781	45.4102	78.9362	45.4102	79.9799	45.4102	78.9786	45.4102	80.1896	45.4102	79.0519	45.4102	80.406	45.4102	79.1565	45.4102	80.6245	45.4102	79.2925	45.4102	80.8394	45.4102	79.4593	45.4102	81.0438	45.4102	79.6551	45.4102	81.2296	45.4102	79.8765	45.4102	81.3871	45.4102	80.1183	45.4102	81.5062	45.4102	80.3729	45.4102	81.578	45.4102	80.6308	45.4102	81.5952	45.4102	80.8805	45.4102	81.5543	45.4102	81.1093	45.4102	81.456	45.4102	81.3048
46.875	79.5088	46.875	79.4035	46.875	79.6378	46.875	79.3232	46.875	79.7886	46.875	79.2692	46.875	79.9585	46.875	79.2422	46.875	80.1443	46.875	79.2428	46.875	80.3422	46.875	79.2718	46.875	80.5477	46.875	79.3297	46.875	80.7561	46.875	79.4172	46.875	80.9621	46.875	79.5344	46.875	81.1598	46.875	79.6812	46.875	81.3425	46.875	79.8564	46.875	81.5028	46.875	80.0575	46.875	81.6324	46.875	80.2803	46.875	81.7232	46.875	80.5184	46.875	81.7679	46.875	80.7633	46.875	81.761	46.875	81.0043	46.875	81.7004	46.875	81.2299	46.875	81.5876	46.875	81.4279
48.3398	79.6701	48.3398	79.5613	48.3398	79.8034	48.3398	79.4784	48.3398	79.9592	48.3398	79.4223	48.3398	80.1347	48.3398	79.3933	48.3398	80.3262	48.3398	79.392	48.3398	80.5293	48.3398	79.4185	48.3398	80.7388	48.3398	79.4731	48.3398	80.9493	48.3398	79.5561	48.3398	81.1546	48.3398	79.6677	48.3398	81.3483	48.3398	79.8075	48.3398	81.5236	48.3398	79.9747	48.3398	81.6732	48.3398	80.1673	48.3398	81.7895	48.3398	80.3815	48.3398	81.8654	48.3398	80.6117	48.3398	81.8947	48.3398	80.8503	48.3398	81.8735	48.3398	81.0874	48.3398	81.8005	48.3398	81.312	48.3398	81.6783	48.3398	81.5125
51.2695	80.1036	51.2695	79.9877	51.2695	80.242	51.2695	79.8956	51.2695	80.4007	51.2695	79.8279	51.2695	80.5764	51.2695	79.7848	51.2695	80.7649	51.2695	79.7662	51.2695	80.9609	51.2695	79.7721	51.2695	81.1585	51.2695	79.8026	51.2695	81.351	51.2695	79.8578	51.2695	81.5319	51.2695	79.9381	51.2695	81.6944	51.2695	80.0437	51.2695	81.8323	51.2695	80.1748	51.2695	81.9395	51.2695	80.3306	51.2695	82.0106	51.2695	80.5092	51.2695	82.041	51.2695	80.7069	51.2695	82.0274	51.2695	80.9181	51.2695	81.9687	51.2695	81.1352	51.2695	81.8661	51.2695	81.3486	51.2695	81.7236	51.2695	81.5482
52.7344	80.161	52.7344	80.0449	52.7344	80.3015	52.7344	79.9545	52.7344	80.464	52.7344	79.8903	52.7344	80.645	52.7344	79.8521	52.7344	80.84	52.7344	79.8397	52.7344	81.0431	52.7344	79.8525	52.7344	81.2479	52.7344	79.8901	52.7344	81.4473	52.7344	79.9523	52.7344	81.6342	52.7344	80.0387	52.7344	81.8015	52.7344	80.1495	52.7344	81.9424	52.7344	80.2842	52.7344	82.0509	52.7344	80.442	52.7344	82.1217	52.7344	80.621	52.7344	82.1506	52.7344	80.8178	52.7344	82.1348	52.7344	81.0271	52.7344	82.0738	52.7344	81.2418	52.7344	81.9695	52.7344	81.4531	52.7344	81.8263	52.7344	81.6513
54.1992	80.1848	54.1992	80.0745	54.1992	80.3178	54.1992	79.9879	54.1992	80.4716	54.1992	79.9252	54.1992	80.6427	54.1992	79.886	54.1992	80.8265	54.1992	79.8695	54.1992	81.0174	54.1992	79.8751	54.1992	81.2085	54.1992	79.9021	54.1992	81.3926	54.1992	79.9503	54.1992	81.5625	54.1992	80.0196	54.1992	81.7111	54.1992	80.1104	54.1992	81.8323	54.1992	80.223	54.1992	81.9207	54.1992	80.3573	54.1992	81.9722	54.1992	80.5124	54.1992	81.9837	54.1992	80.6862	54.1992	81.9538	54.1992	80.8746	54.1992	81.8827	54.1992	81.0716	54.1992	81.7728	54.1992	81.2692	54.1992	81.6289	54.1992	81.4581
55.6641	80.4048	55.6641	80.2881	55.6641	80.5411	55.6641	80.1923	55.6641	80.6946	55.6641	80.1176	55.6641	80.8618	55.6641	80.0638	55.6641	81.0381	55.6641	80.0305	55.6641	81.2173	55.6641	80.017	55.6641	81.3928	55.6641	80.0231	55.6641	81.5574	55.6641	80.0487	55.6641	81.704	55.6641	80.0941	55.6641	81.8262	55.6641	80.1601	55.6641	81.9184	55.6641	80.2476	55.6641	81.9764	55.6641	80.3572	55.6641	81.9973	55.6641	80.489	55.6641	81.9795	55.6641	80.6417	55.6641	81.923	55.6641	80.8123	55.6641	81.8294	55.6641	80.9959	55.6641	81.7025	55.6641	81.1855	55.6641	81.5477	55.6641	81.3724
58.5938	80.6554	58.5938	80.5292	58.5938	80.8001	58.5938	80.4232	58.5938	80.9607	58.5938	80.338	58.5938	81.1329	58.5938	80.2734	58.5938	81.3112	58.5938	80.2289	58.5938	81.4892	58.5938	80.2038	58.5938	81.6596	58.5938	80.1976	58.5938	81.8147	58.5938	80.21	58.5938	81.9474	58.5938	80.2413	58.5938	82.0515	58.5938	80.2923	58.5938	82.122	58.5938	80.3638	58.5938	82.1554	58.5938	80.457	58.5938	82.1501	58.5938	80.5726	58.5938	82.1059	58.5938	80.7102	58.5938	82.0244	58.5938	80.868	58.5938	81.9088	58.5938	81.0423	58.5938	81.764	58.5938	81.2271	58.5938	81.5967	58.5938	81.4148
60.0586	80.6809	60.0586	80.5518	60.0586	80.8279	60.0586	80.4422	60.0586	80.9899	60.0586	80.3528	60.0586	81.1625	60.0586	80.2834	60.0586	81.34	60.0586	80.2336	60.0586	81.5159	60.0586	80.2025	60.0586	81.6827	60.0586	80.1895	60.0586	81.8326	60.0586	80.1945	60.0586	81.9585	60.0586	80.2176	60.0586	82.0541	60.0586	80.2596	60.0586	82.1146	60.0586	80.3216	60.0586	82.1367	60.0586	80.4051	60.0586	82.1192	60.0586	80.5112	60.0586	82.0625	60.0586	80.64	60.0586	81.9688	60.0586	80.7904	60.0586	81.8422	60.0586	80.9592	60.0586	81.6884	60.0586	81.1413	60.0586	81.5146	60.0586	81.3292
62.9883	80.7461	62.9883	80.6116	62.9883	80.8983	62.9883	80.4968	62.9883	81.0653	62.9883	80.4023	62.9883	81.2424	62.9883	80.3278	62.9883	81.4237	62.9883	80.2727	62.9883	81.6022	62.9883	80.236	62.9883	81.77	62.9883	80.217	62.9883	81.9191	62.9883	80.2151	62.9883	82.042	62.9883	80.2306	62.9883	82.132	62.9883	80.2641	62.9883	82.1842	62.9883	80.3169	62.9883	82.1953	62.9883	80.3908	62.9883	82.1642	62.9883	80.4873	62.9883	82.092	62.9883	80.6076	62.9883	81.9819	62.9883	80.7514	62.9883	81.839	62.9883	80.9165	62.9883	81.6703	62.9883	81.0985	62.9883	81.4844	62.9883	81.2906
64.4531	80.8159	64.4531	80.6799	64.4531	80.9706	64.4531	80.5642	64.4531	81.1408	64.4531	80.4695	64.4531	81.3219	64.4531	80.3954	64.4531	81.5079	64.4531	80.3412	64.4531	81.6915	64.4531	80.3057	64.4531	81.8648	64.4531	80.288	64.4531	82.0196	64.4531	80.2875	64.4531	82.1478	64.4531	80.3042	64.4531	82.2426	64.4531	80.3388	64.4531	82.2984	64.4531	80.3925	64.4531	82.3118	64.4531	80.4672	64.4531	82.2812	64.4531	80.5647	64.4531	82.2076	64.4531	80.6862	64.4531	82.0942	64.4531	80.8317	64.4531	81.9467	64.4531	80.9995	64.4531	81.7725	64.4531	81.1851	64.4531	81.5809	64.4531	81.3818
67.3828	80.864	67.3828	80.7195	67.3828	81.0274	67.3828	80.5958	67.3828	81.2062	67.3828	80.4936	67.3828	81.3954	67.3828	80.4125	67.3828	81.5886	67.3828	80.3518	67.3828	81.7781	67.3828	80.3101	67.3828	81.9555	67.3828	80.2863	67.3828	82.1121	67.3828	80.2797	67.3828	82.2396	67.3828	80.2902	67.3828	82.3308	67.3828	80.3184	67.3828	82.3799	67.3828	80.3657	67.3828	82.3833	67.3828	80.4341	67.3828	82.3398	67.3828	80.5259	67.3828	82.2508	67.3828	80.643	67.3828	82.1204	67.3828	80.7861	67.3828	81.9553	67.3828	80.9542	67.3828	81.7645	67.3828	81.1436	67.3828	81.5584	67.3828	81.3479
68.8477	80.8665	68.8477	80.7178	68.8477	81.0337	68.8477	80.5896	68.8477	81.2156	68.8477	80.4829	68.8477	81.4068	68.8477	80.3976	68.8477	81.6007	68.8477	80.3327	68.8477	81.7895	68.8477	80.2871	68.8477	81.9647	68.8477	80.2596	68.8477	82.1177	68.8477	80.2494	68.8477	82.2403	68.8477	80.2562	68.8477	82.3255	68.8477	80.2806	68.8477	82.3678	68.8477	80.324	68.8477	82.3638	68.8477	80.3885	68.8477	82.3125	68.8477	80.4763	68.8477	82.2158	68.8477	80.5896	68.8477	82.0781	68.8477	80.7294	68.8477	81.9065	68.8477	80.8951	68.8477	81.7105	68.8477	81.0834	68.8477	81.5006	68.8477	81.2881
