"SPL Vertical"																																																																							
"On-Axis"		"10°"		"-10°"		"20°"		"-20°"		"30°"		"-30°"		"40°"		"-40°"		"50°"		"-50°"		"60°"		"-60°"		"70°"		"-70°"		"80°"		"-80°"		"90°"		"-90°"		"100°"		"-100°"		"110°"		"-110°"		"120°"		"-120°"		"130°"		"-130°"		"140°"		"-140°"		"150°"		"-150°"		"160°"		"-160°"		"170°"		"-170°"		"180°"	
"Frequency [Hz]"	"Sound Pessure Level [dB]  / [2.83V 1m] "	"Frequency [Hz]"	"Sound Pessure Level [dB]  / [2.83V 1m] "	"Frequency [Hz]"	"Sound Pessure Level [dB]  / [2.83V 1m] "	"Frequency [Hz]"	"Sound Pessure Level [dB]  / [2.83V 1m] "	"Frequency [Hz]"	"Sound Pessure Level [dB]  / [2.83V 1m] "	"Frequency [Hz]"	"Sound Pessure Level [dB]  / [2.83V 1m] "	"Frequency [Hz]"	"Sound Pessure Level [dB]  / [2.83V 1m] "	"Frequency [Hz]"	"Sound Pessure Level [dB]  / [2.83V 1m] "	"Frequency [Hz]"	"Sound Pessure Level [dB]  / [2.83V 1m] "	"Frequency [Hz]"	"Sound Pessure Level [dB]  / [2.83V 1m] "	"Frequency [Hz]"	"Sound Pessure Level [dB]  / [2.83V 1m] "	"Frequency [Hz]"	"Sound Pessure Level [dB]  / [2.83V 1m] "	"Frequency [Hz]"	"Sound Pessure Level [dB]  / [2.83V 1m] "	"Frequency [Hz]"	"Sound Pessure Level [dB]  / [2.83V 1m] "	"Frequency [Hz]"	"Sound Pessure Level [dB]  / [2.83V 1m] "	"Frequency [Hz]"	"Sound Pessure Level [dB]  / [2.83V 1m] "	"Frequency [Hz]"	"Sound Pessure Level [dB]  / [2.83V 1m] "	"Frequency [Hz]"	"Sound Pessure Level [dB]  / [2.83V 1m] "	"Frequency [Hz]"	"Sound Pessure Level [dB]  / [2.83V 1m] "	"Frequency [Hz]"	"Sound Pessure Level [dB]  / [2.83V 1m] "	"Frequency [Hz]"	"Sound Pessure Level [dB]  / [2.83V 1m] "	"Frequency [Hz]"	"Sound Pessure Level [dB]  / [2.83V 1m] "	"Frequency [Hz]"	"Sound Pessure Level [dB]  / [2.83V 1m] "	"Frequency [Hz]"	"Sound Pessure Level [dB]  / [2.83V 1m] "	"Frequency [Hz]"	"Sound Pessure Level [dB]  / [2.83V 1m] "	"Frequency [Hz]"	"Sound Pessure Level [dB]  / [2.83V 1m] "	"Frequency [Hz]"	"Sound Pessure Level [dB]  / [2.83V 1m] "	"Frequency [Hz]"	"Sound Pessure Level [dB]  / [2.83V 1m] "	"Frequency [Hz]"	"Sound Pessure Level [dB]  / [2.83V 1m] "	"Frequency [Hz]"	"Sound Pessure Level [dB]  / [2.83V 1m] "	"Frequency [Hz]"	"Sound Pessure Level [dB]  / [2.83V 1m] "	"Frequency [Hz]"	"Sound Pessure Level [dB]  / [2.83V 1m] "	"Frequency [Hz]"	"Sound Pessure Level [dB]  / [2.83V 1m] "	"Frequency [Hz]"	"Sound Pessure Level [dB]  / [2.83V 1m] "	"Frequency [Hz]"	"Sound Pessure Level [dB]  / [2.83V 1m] "	"Frequency [Hz]"	"Sound Pessure Level [dB]  / [2.83V 1m] "
20.5078	55.9023	20.5078	55.7032	20.5078	55.8477	20.5078	55.2607	20.5078	55.5073	20.5078	54.5656	20.5078	54.8212	20.5078	53.5871	20.5078	53.6858	20.5078	52.2665	20.5078	51.9262	20.5078	50.5117	20.5078	49.2762	20.5078	48.2216	20.5078	45.8465	20.5078	45.5842	20.5078	45.5777	20.5078	44.4074	20.5078	49.6795	20.5078	46.6231	20.5078	53.3245	20.5078	49.8101	20.5078	55.9762	20.5078	52.5492	20.5078	57.8912	20.5078	54.755	20.5078	59.2543	20.5078	56.5301	20.5078	60.177	20.5078	57.9575	20.5078	60.7291	20.5078	59.0881	20.5078	60.9562	20.5078	59.9489	20.5078	60.8896	20.5078	60.55
21.9727	58.5006	21.9727	58.3036	21.9727	58.4982	21.9727	57.9164	21.9727	58.2764	21.9727	57.3382	21.9727	57.8025	21.9727	56.5589	21.9727	57.031	21.9727	55.561	21.9727	55.9079	21.9727	54.327	21.9727	54.4068	21.9727	52.868	21.9727	52.6947	21.9727	51.3214	21.9727	51.5953	21.9727	50.171	21.9727	52.3368	21.9727	50.2283	21.9727	54.4173	21.9727	51.6148	21.9727	56.5781	21.9727	53.5482	21.9727	58.3511	21.9727	55.4393	21.9727	59.6811	21.9727	57.0915	21.9727	60.605	21.9727	58.4695	21.9727	61.1681	21.9727	59.579	21.9727	61.4076	21.9727	60.4288	21.9727	61.352	21.9727	61.0215
23.4375	58.4382	23.4375	58.2235	23.4375	58.4178	23.4375	57.7827	23.4375	58.1363	23.4375	57.1088	23.4375	57.546	23.4375	56.1785	23.4375	56.5686	23.4375	54.9504	23.4375	55.0824	23.4375	53.3701	23.4375	52.9274	23.4375	51.415	23.4375	50.1663	23.4375	49.3392	23.4375	48.7637	23.4375	48.3503	23.4375	51.3031	23.4375	49.7374	23.4375	54.7013	23.4375	52.2939	23.4375	57.3945	23.4375	54.7512	23.4375	59.3841	23.4375	56.8221	23.4375	60.8165	23.4375	58.5191	23.4375	61.7995	23.4375	59.8917	23.4375	62.4043	23.4375	60.9773	23.4375	62.6789	23.4375	61.7969	23.4375	62.6559	23.4375	62.3576
24.9023	58.443	24.9023	58.2492	24.9023	58.3885	24.9023	57.8179	24.9023	58.0585	24.9023	57.1461	24.9023	57.4072	24.9023	56.2194	24.9023	56.3687	24.9023	55.0209	24.9023	54.8779	24.9023	53.5645	24.9023	53.0144	24.9023	52.0142	24.9023	51.6106	24.9023	50.959	24.9023	52.4371	24.9023	51.3133	24.9023	55.0158	24.9023	53.0229	24.9023	57.6399	24.9023	55.1618	24.9023	59.7846	24.9023	57.1816	24.9023	61.4344	24.9023	58.937	24.9023	62.6531	24.9023	60.4186	24.9023	63.4999	24.9023	61.6447	24.9023	64.0199	24.9023	62.6318	24.9023	64.2466	24.9023	63.3884	24.9023	64.2055	24.9023	63.9152
26.3672	60.7415	26.3672	60.5674	26.3672	60.7243	26.3672	60.2117	26.3672	60.5001	26.3672	59.679	26.3672	60.0485	26.3672	58.9719	26.3672	59.3515	26.3672	58.0992	26.3672	58.4187	26.3672	57.096	26.3672	57.3594	26.3672	56.0688	26.3672	56.5314	26.3672	55.265	26.3672	56.5511	26.3672	55.0648	26.3672	57.6539	26.3672	55.6962	26.3672	59.3195	26.3672	56.9592	26.3672	60.9858	26.3672	58.4666	26.3672	62.4026	26.3672	59.9512	26.3672	63.5036	26.3672	61.2919	26.3672	64.2886	26.3672	62.444	26.3672	64.7755	26.3672	63.392	26.3672	64.9852	26.3672	64.1288	26.3672	64.9369	26.3672	64.647
27.832	61.0815	27.832	60.9212	27.832	61.0358	27.832	60.5668	27.832	60.7635	27.832	60.0242	27.832	60.2366	27.832	59.2969	27.832	59.4261	27.832	58.3965	27.832	58.3326	27.832	57.3672	27.832	57.0918	27.832	56.3418	27.832	56.219	27.832	55.6194	27.832	56.5646	27.832	55.6135	27.832	58.1763	27.832	56.4786	27.832	60.1966	27.832	57.9103	27.832	62.0451	27.832	59.5072	27.832	63.5481	27.832	61.0348	27.832	64.6881	27.832	62.3981	27.832	65.4877	27.832	63.5658	27.832	65.9754	27.832	64.5282	27.832	66.1778	27.832	65.2798	27.832	66.1174	27.832	65.8131
29.2969	62.0828	29.2969	61.9484	29.2969	62.0501	29.2969	61.659	29.2969	61.8382	29.2969	61.2282	29.2969	61.4405	29.2969	60.6753	29.2969	60.8693	29.2969	60.0357	29.2969	60.1925	29.2969	59.3789	29.2969	59.5997	29.2969	58.8307	29.2969	59.4372	29.2969	58.5739	29.2969	60.009	29.2969	58.7776	29.2969	61.2258	29.2969	59.4723	29.2969	62.7043	29.2969	60.5217	29.2969	64.1268	29.2969	61.7323	29.2969	65.3388	29.2969	62.9535	29.2969	66.2864	29.2969	64.0951	29.2969	66.9603	29.2969	65.1089	29.2969	67.3688	29.2969	65.968	29.2969	67.5262	29.2969	66.6543	29.2969	67.4488	29.2969	67.1529
30.7617	63.1137	30.7617	62.9784	30.7617	63.0886	30.7617	62.6939	30.7617	62.8915	30.7617	62.2724	30.7617	62.5145	30.7617	61.7305	30.7617	61.9647	30.7617	61.0982	30.7617	61.2933	30.7617	60.434	30.7617	60.6521	30.7617	59.8463	30.7617	60.3425	30.7617	59.5007	30.7617	60.6916	30.7617	59.571	30.7617	61.7159	30.7617	60.1252	30.7617	63.0877	30.7617	61.0651	30.7617	64.4684	30.7617	62.207	30.7617	65.6713	30.7617	63.39	30.7617	66.6236	30.7617	64.5114	30.7617	67.3071	30.7617	65.5138	30.7617	67.7261	30.7617	66.3653	30.7617	67.8934	30.7617	67.0451	30.7617	67.825	30.7617	67.5369
32.2266	63.892	32.2266	63.7777	32.2266	63.868	32.2266	63.5358	32.2266	63.6991	32.2266	63.1811	32.2266	63.3881	32.2266	62.7359	32.2266	62.9603	32.2266	62.2371	32.2266	62.49	32.2266	61.7465	32.2266	62.1334	32.2266	61.3605	32.2266	62.1216	32.2266	61.2024	32.2266	62.6289	32.2266	61.3799	32.2266	63.6022	32.2266	61.9214	32.2266	64.8044	32.2266	62.7541	32.2266	66.0026	32.2266	63.7528	32.2266	67.0542	32.2266	64.7993	32.2266	67.8931	32.2266	65.8085	32.2266	68.4961	32.2266	66.7261	32.2266	68.8613	32.2266	67.5174	32.2266	68.9965	32.2266	68.1583	32.2266	68.9143	32.2266	68.6296
33.6914	64.9506	33.6914	64.8347	33.6914	64.9464	33.6914	64.6082	33.6914	64.818	33.6914	64.2851	33.6914	64.5713	33.6914	63.8871	33.6914	64.2327	33.6914	63.4484	33.6914	63.8682	33.6914	63.0233	33.6914	63.6032	33.6914	62.6915	33.6914	63.6115	33.6914	62.5515	33.6914	64.0275	33.6914	62.6902	33.6914	64.8312	33.6914	63.1385	33.6914	65.8569	33.6914	63.8505	33.6914	66.9128	33.6914	64.7307	33.6914	67.8631	33.6914	65.6774	33.6914	68.6338	33.6914	66.6095	33.6914	69.1929	33.6914	67.4705	33.6914	69.5315	33.6914	68.2215	33.6914	69.6533	33.6914	68.8353	33.6914	69.5683	33.6914	69.2903
35.1563	65.8107	35.1563	65.6932	35.1563	65.8213	35.1563	65.4772	35.1563	65.7225	35.1563	65.1768	35.1563	65.5218	35.1563	64.8132	35.1563	65.246	35.1563	64.4194	35.1563	64.9557	35.1563	64.0455	35.1563	64.7583	35.1563	63.7617	35.1563	64.7953	35.1563	63.6517	35.1563	65.1756	35.1563	63.7876	35.1563	65.8902	35.1563	64.1967	35.1563	66.8106	35.1563	64.8445	35.1563	67.7745	35.1563	65.6526	35.1563	68.6555	35.1563	66.5329	35.1563	69.3782	35.1563	67.4101	35.1563	69.9061	35.1563	68.2285	35.1563	70.2262	35.1563	68.9482	35.1563	70.3391	35.1563	69.5402	35.1563	70.2532	35.1563	69.9815
36.6211	66.6157	36.6211	66.5038	36.6211	66.629	36.6211	66.3012	36.6211	66.5415	36.6211	66.0211	36.6211	66.361	36.6211	65.6838	36.6211	66.1131	36.6211	65.3197	36.6211	65.8535	36.6211	64.9741	36.6211	65.6779	36.6211	64.709	36.6211	65.7111	36.6211	64.5977	36.6211	66.0513	36.6211	64.7053	36.6211	66.6982	36.6211	65.0608	36.6211	67.5445	36.6211	65.6414	36.6211	68.4443	36.6211	66.3823	36.6211	69.2763	36.6211	67.2043	36.6211	69.9643	36.6211	68.0354	36.6211	70.4687	36.6211	68.8195	36.6211	70.7739	36.6211	69.515	36.6211	70.8789	36.6211	70.0908	36.6211	70.7909	36.6211	70.5228
38.0859	67.2353	38.0859	67.124	38.0859	67.2602	38.0859	66.9335	38.0859	67.1979	38.0859	66.6773	38.0859	67.0582	38.0859	66.376	38.0859	66.8683	38.0859	66.0601	38.0859	66.6821	38.0859	65.7729	38.0859	66.5855	38.0859	65.5706	38.0859	66.6822	38.0859	65.5158	38.0859	67.0467	38.0859	65.6603	38.0859	67.6718	38.0859	66.0245	38.0859	68.4661	38.0859	66.5858	38.0859	69.3051	38.0859	67.289	38.0859	70.0824	38.0859	68.0657	38.0859	70.7273	38.0859	68.8526	38.0859	71.2009	38.0859	69.5981	38.0859	71.4867	38.0859	70.2625	38.0859	71.5819	38.0859	70.8153	38.0859	71.493	38.0859	71.2321
39.5508	68.2135	39.5508	68.1126	39.5508	68.2411	39.5508	67.9457	39.5508	68.1952	39.5508	67.7257	39.5508	68.0856	39.5508	67.472	39.5508	67.9375	39.5508	67.2124	39.5508	67.799	39.5508	66.9842	39.5508	67.7434	39.5508	66.8335	39.5508	67.8561	39.5508	66.8095	39.5508	68.1976	39.5508	66.9524	39.5508	68.764	39.5508	67.2786	39.5508	69.4817	39.5508	67.7736	39.5508	70.2456	39.5508	68.396	39.5508	70.9601	39.5508	69.0914	39.5508	71.5575	39.5508	69.8053	39.5508	71.9985	39.5508	70.49	39.5508	72.2646	39.5508	71.1068	39.5508	72.3519	39.5508	71.6245	39.5508	72.2656	39.5508	72.0177
41.0156	68.8525	41.0156	68.7559	41.0156	68.8845	41.0156	68.6003	41.0156	68.8527	41.0156	68.3973	41.0156	68.7677	41.0156	68.1647	41.0156	68.6542	41.0156	67.9272	41.0156	68.5565	41.0156	67.7182	41.0156	68.5385	41.0156	67.5786	41.0156	68.6715	41.0156	67.552	41.0156	69.0041	41.0156	67.6752	41.0156	69.5314	41.0156	67.9659	41.0156	70.1914	41.0156	68.4153	41.0156	70.8934	41.0156	68.9897	41.0156	71.5518	41.0156	69.641	41.0156	72.1032	41.0156	70.3185	41.0156	72.5088	41.0156	70.9759	41.0156	72.749	41.0156	71.5741	41.0156	72.8187	41.0156	72.0811	41.0156	72.7223	41.0156	72.4709
42.4805	69.6102	42.4805	69.5132	42.4805	69.6511	42.4805	69.3649	42.4805	69.6375	42.4805	69.176	42.4805	69.5803	42.4805	68.9625	42.4805	69.503	42.4805	68.7476	42.4805	69.4458	42.4805	68.5611	42.4805	69.4642	42.4805	68.4395	42.4805	69.6176	42.4805	68.4215	42.4805	69.9451	42.4805	68.5397	42.4805	70.4411	42.4805	68.8109	42.4805	71.0528	42.4805	69.2291	42.4805	71.7018	42.4805	69.7663	42.4805	72.3112	42.4805	70.3805	42.4805	72.8219	42.4805	71.025	42.4805	73.1962	42.4805	71.6557	42.4805	73.414	42.4805	72.2343	42.4805	73.4691	42.4805	72.7289	42.4805	73.3652	42.4805	73.113
43.9453	70.4705	43.9453	70.3785	43.9453	70.5181	43.9453	70.2464	43.9453	70.5233	43.9453	70.0841	43.9453	70.4967	43.9453	69.9065	43.9453	70.46	43.9453	69.7346	43.9453	70.4485	43.9453	69.5946	43.9453	70.5086	43.9453	69.5175	43.9453	70.688	43.9453	69.5345	43.9453	71.016	43.9453	69.6713	43.9453	71.4861	43.9453	69.9404	43.9453	72.0538	43.9453	70.3362	43.9453	72.6526	43.9453	70.8358	43.9453	73.2154	43.9453	71.404	43.9453	73.6886	43.9453	72.0008	43.9453	74.0362	43.9453	72.5869	43.9453	74.2385	43.9453	73.1269	43.9453	74.2887	43.9453	73.5903	43.9453	74.1896	43.9453	73.9515
45.4102	71.5581	45.4102	71.4607	45.4102	71.6165	45.4102	71.3276	45.4102	71.6379	45.4102	71.167	45.4102	71.6313	45.4102	70.9917	45.4102	71.6146	45.4102	70.8194	45.4102	71.6162	45.4102	70.6731	45.4102	71.6734	45.4102	70.5797	45.4102	71.8249	45.4102	70.5677	45.4102	72.0968	45.4102	70.6617	45.4102	72.4887	45.4102	70.8764	45.4102	72.9691	45.4102	71.2114	45.4102	73.4843	45.4102	71.6496	45.4102	73.9758	45.4102	72.1614	45.4102	74.3929	45.4102	72.71	45.4102	74.6993	45.4102	73.2578	45.4102	74.8736	45.4102	73.7693	45.4102	74.9069	45.4102	74.2135	45.4102	74.8008	45.4102	74.5644
46.875	71.9929	46.875	71.8861	46.875	72.0625	46.875	71.7463	46.875	72.0963	46.875	71.5818	46.875	72.1021	46.875	71.4059	46.875	72.0965	46.875	71.2363	46.875	72.1062	46.875	71.0954	46.875	72.1663	46.875	71.0094	46.875	72.3143	46.875	71.0053	46.875	72.5763	46.875	71.1059	46.875	72.9539	46.875	71.3241	46.875	73.418	46.875	71.6585	46.875	73.9179	46.875	72.0923	46.875	74.3963	46.875	72.5966	46.875	74.8032	46.875	73.1363	46.875	75.1023	46.875	73.6749	46.875	75.2718	46.875	74.1783	46.875	75.3028	46.875	74.6161	46.875	75.1966	46.875	74.9625
48.3398	72.3072	48.3398	72.2126	48.3398	72.3804	48.3398	72.0999	48.3398	72.4343	48.3398	71.9769	48.3398	72.4776	48.3398	71.8556	48.3398	72.5267	48.3398	71.7519	48.3398	72.6062	48.3398	71.6849	48.3398	72.7461	48.3398	71.6756	48.3398	72.975	48.3398	71.7441	48.3398	73.3087	48.3398	71.9057	48.3398	73.7399	48.3398	72.1675	48.3398	74.2368	48.3398	72.5252	48.3398	74.7512	48.3398	72.9637	48.3398	75.2311	48.3398	73.459	48.3398	75.6318	48.3398	73.982	48.3398	75.9211	48.3398	74.5021	48.3398	76.0803	48.3398	74.9893	48.3398	76.1027	48.3398	75.4158	48.3398	75.9913	48.3398	75.7568
51.2695	74.075	51.2695	73.9825	51.2695	74.1557	51.2695	73.8804	51.2695	74.226	51.2695	73.774	51.2695	74.2918	51.2695	73.6714	51.2695	74.3641	51.2695	73.5835	51.2695	74.4586	51.2695	73.5231	51.2695	74.5945	51.2695	73.5047	51.2695	74.7901	51.2695	73.5426	51.2695	75.0561	51.2695	73.6491	51.2695	75.3895	51.2695	73.8324	51.2695	75.7705	51.2695	74.0937	51.2695	76.1654	51.2695	74.4264	51.2695	76.5351	51.2695	74.8163	51.2695	76.8424	51.2695	75.2427	51.2695	77.0585	51.2695	75.6808	51.2695	77.1651	51.2695	76.104	51.2695	77.155	51.2695	76.4859	51.2695	77.0304	51.2695	76.8019
52.7344	74.7737	52.7344	74.6796	52.7344	74.859	52.7344	74.5788	52.7344	74.9369	52.7344	74.4762	52.7344	75.0121	52.7344	74.3791	52.7344	75.094	52.7344	74.297	52.7344	75.1959	52.7344	74.2413	52.7344	75.3341	52.7344	74.2247	52.7344	75.5238	52.7344	74.2599	52.7344	75.7744	52.7344	74.3582	52.7344	76.0831	52.7344	74.5271	52.7344	76.433	52.7344	74.7685	52.7344	76.7947	52.7344	75.0774	52.7344	77.1328	52.7344	75.4414	52.7344	77.4131	52.7344	75.8422	52.7344	77.6082	52.7344	76.2569	52.7344	77.7005	52.7344	76.6603	52.7344	77.6827	52.7344	77.027	52.7344	77.5568	52.7344	77.3328
54.1992	75.4978	54.1992	75.4031	54.1992	75.5876	54.1992	75.3053	54.1992	75.6737	54.1992	75.2083	54.1992	75.76	54.1992	75.1183	54.1992	75.8541	54.1992	75.0433	54.1992	75.9666	54.1992	74.993	54.1992	76.1102	54.1992	74.9781	54.1992	76.2967	54.1992	75.0097	54.1992	76.5327	54.1992	75.0975	54.1992	76.8158	54.1992	75.2487	54.1992	77.1313	54.1992	75.4659	54.1992	77.4544	54.1992	75.7456	54.1992	77.7542	54.1992	76.0781	54.1992	78.0003	54.1992	76.4477	54.1992	78.1677	54.1992	76.834	54.1992	78.2397	54.1992	77.2139	54.1992	78.2095	54.1992	77.563	54.1992	78.0791	54.1992	77.8582
55.6641	76.1328	55.6641	76.0312	55.6641	76.2301	55.6641	75.9271	55.6641	76.3238	55.6641	75.8247	55.6641	76.4171	55.6641	75.7296	55.6641	76.5161	55.6641	75.6496	55.6641	76.63	55.6641	75.5939	55.6641	76.7697	55.6641	75.5726	55.6641	76.9457	55.6641	75.5964	55.6641	77.1645	55.6641	75.6747	55.6641	77.4245	55.6641	75.8147	55.6641	77.7138	55.6641	76.0191	55.6641	78.0102	55.6641	76.285	55.6641	78.2856	55.6641	76.6036	55.6641	78.5113	55.6641	76.9598	55.6641	78.6629	55.6641	77.3341	55.6641	78.7241	55.6641	77.7038	55.6641	78.6876	55.6641	78.0453	55.6641	78.555	55.6641	78.3357
58.5938	77.3613	58.5938	77.2626	58.5938	77.4643	58.5938	77.1699	58.5938	77.5716	58.5938	77.0863	58.5938	77.685	58.5938	77.0161	58.5938	77.8082	58.5938	76.9649	58.5938	77.9467	58.5938	76.9388	58.5938	78.107	58.5938	76.945	58.5938	78.2953	58.5938	76.9904	58.5938	78.5144	58.5938	77.0812	58.5938	78.7615	58.5938	77.2222	58.5938	79.0261	58.5938	77.415	58.5938	79.29	58.5938	77.6577	58.5938	79.53	58.5938	77.9437	58.5938	79.7225	58.5938	78.2618	58.5938	79.847	58.5938	78.5966	58.5938	79.8897	58.5938	78.9295	58.5938	79.8448	58.5938	79.2401	58.5938	79.7144	58.5938	79.5079
60.0586	77.9052	60.0586	77.8055	60.0586	78.0113	60.0586	77.7137	60.0586	78.1234	60.0586	77.6324	60.0586	78.2427	60.0586	77.5653	60.0586	78.3717	60.0586	77.5171	60.0586	78.5145	60.0586	77.4929	60.0586	78.6757	60.0586	77.4988	60.0586	78.8597	60.0586	77.5407	60.0586	79.0683	60.0586	77.6242	60.0586	79.2988	60.0586	77.7535	60.0586	79.5416	60.0586	77.9308	60.0586	79.7808	60.0586	78.1548	60.0586	79.996	60.0586	78.4202	60.0586	80.1655	60.0586	78.7175	60.0586	80.2709	60.0586	79.033	60.0586	80.2993	60.0586	79.3493	60.0586	80.2455	60.0586	79.6474	60.0586	80.1119	60.0586	79.9077
62.9883	79.0335	62.9883	78.9287	62.9883	79.1488	62.9883	78.8359	62.9883	79.2736	62.9883	78.7574	62.9883	79.4074	62.9883	78.6959	62.9883	79.5509	62.9883	78.6546	62.9883	79.7051	62.9883	78.6371	62.9883	79.8718	62.9883	78.6474	62.9883	80.0525	62.9883	78.6896	62.9883	80.2471	62.9883	78.7678	62.9883	80.4526	62.9883	78.8852	62.9883	80.6613	62.9883	79.0435	62.9883	80.8607	62.9883	79.2423	62.9883	81.0348	62.9883	79.4781	62.9883	81.1661	62.9883	79.7436	62.9883	81.2393	62.9883	80.0278	62.9883	81.2439	62.9883	80.3165	62.9883	81.1757	62.9883	80.5927	62.9883	81.0376	62.9883	80.8387
64.4531	79.6001	64.4531	79.4934	64.4531	79.7194	64.4531	79.4008	64.4531	79.8498	64.4531	79.3242	64.4531	79.9905	64.4531	79.2659	64.4531	80.1409	64.4531	79.2283	64.4531	80.301	64.4531	79.2144	64.4531	80.4711	64.4531	79.2271	64.4531	80.6513	64.4531	79.27	64.4531	80.8407	64.4531	79.3461	64.4531	81.0358	64.4531	79.4582	64.4531	81.2296	64.4531	79.6081	64.4531	81.4112	64.4531	79.7954	64.4531	81.5662	64.4531	80.0174	64.4531	81.6793	64.4531	80.2679	64.4531	81.7369	64.4531	80.5373	64.4531	81.7297	64.4531	80.8126	64.4531	81.6543	64.4531	81.0782	64.4531	81.5138	64.4531	81.3173
67.3828	80.7746	67.3828	80.6624	67.3828	80.9018	67.3828	80.567	67.3828	81.0418	67.3828	80.4901	67.3828	81.1926	67.3828	80.4331	67.3828	81.3519	67.3828	80.3977	67.3828	81.5175	67.3828	80.3854	67.3828	81.6877	67.3828	80.3979	67.3828	81.8604	67.3828	80.4374	67.3828	82.0335	67.3828	80.5058	67.3828	82.2036	67.3828	80.6051	67.3828	82.3649	67.3828	80.7365	67.3828	82.5091	67.3828	80.9004	67.3828	82.6256	67.3828	81.095	67.3828	82.7026	67.3828	81.3161	67.3828	82.7296	67.3828	81.5564	67.3828	82.6995	67.3828	81.8053	67.3828	82.6104	67.3828	82.0497	67.3828	82.4659	67.3828	82.2747
68.8477	81.329	68.8477	81.214	68.8477	81.46	68.8477	81.1171	68.8477	81.6047	68.8477	81.0398	68.8477	81.7603	68.8477	80.9836	68.8477	81.9238	68.8477	80.9494	68.8477	82.0921	68.8477	80.9383	68.8477	82.2625	68.8477	80.9516	68.8477	82.4322	68.8477	80.9904	68.8477	82.5986	68.8477	81.0564	68.8477	82.7581	68.8477	81.1508	68.8477	82.9055	68.8477	81.275	68.8477	83.0336	68.8477	81.4291	68.8477	83.1331	68.8477	81.6119	68.8477	83.194	68.8477	81.8199	68.8477	83.2072	68.8477	82.047	68.8477	83.1668	68.8477	82.2838	68.8477	83.0715	68.8477	82.5182	68.8477	82.9252	68.8477	82.7367
