"SPL Vertical"																																																																							
"On-Axis"		"10°"		"-10°"		"20°"		"-20°"		"30°"		"-30°"		"40°"		"-40°"		"50°"		"-50°"		"60°"		"-60°"		"70°"		"-70°"		"80°"		"-80°"		"90°"		"-90°"		"100°"		"-100°"		"110°"		"-110°"		"120°"		"-120°"		"130°"		"-130°"		"140°"		"-140°"		"150°"		"-150°"		"160°"		"-160°"		"170°"		"-170°"		"180°"	
"Frequency [Hz]"	"Sound Pessure Level [dB]  / [2.83V 1m] "	"Frequency [Hz]"	"Sound Pessure Level [dB]  / [2.83V 1m] "	"Frequency [Hz]"	"Sound Pessure Level [dB]  / [2.83V 1m] "	"Frequency [Hz]"	"Sound Pessure Level [dB]  / [2.83V 1m] "	"Frequency [Hz]"	"Sound Pessure Level [dB]  / [2.83V 1m] "	"Frequency [Hz]"	"Sound Pessure Level [dB]  / [2.83V 1m] "	"Frequency [Hz]"	"Sound Pessure Level [dB]  / [2.83V 1m] "	"Frequency [Hz]"	"Sound Pessure Level [dB]  / [2.83V 1m] "	"Frequency [Hz]"	"Sound Pessure Level [dB]  / [2.83V 1m] "	"Frequency [Hz]"	"Sound Pessure Level [dB]  / [2.83V 1m] "	"Frequency [Hz]"	"Sound Pessure Level [dB]  / [2.83V 1m] "	"Frequency [Hz]"	"Sound Pessure Level [dB]  / [2.83V 1m] "	"Frequency [Hz]"	"Sound Pessure Level [dB]  / [2.83V 1m] "	"Frequency [Hz]"	"Sound Pessure Level [dB]  / [2.83V 1m] "	"Frequency [Hz]"	"Sound Pessure Level [dB]  / [2.83V 1m] "	"Frequency [Hz]"	"Sound Pessure Level [dB]  / [2.83V 1m] "	"Frequency [Hz]"	"Sound Pessure Level [dB]  / [2.83V 1m] "	"Frequency [Hz]"	"Sound Pessure Level [dB]  / [2.83V 1m] "	"Frequency [Hz]"	"Sound Pessure Level [dB]  / [2.83V 1m] "	"Frequency [Hz]"	"Sound Pessure Level [dB]  / [2.83V 1m] "	"Frequency [Hz]"	"Sound Pessure Level [dB]  / [2.83V 1m] "	"Frequency [Hz]"	"Sound Pessure Level [dB]  / [2.83V 1m] "	"Frequency [Hz]"	"Sound Pessure Level [dB]  / [2.83V 1m] "	"Frequency [Hz]"	"Sound Pessure Level [dB]  / [2.83V 1m] "	"Frequency [Hz]"	"Sound Pessure Level [dB]  / [2.83V 1m] "	"Frequency [Hz]"	"Sound Pessure Level [dB]  / [2.83V 1m] "	"Frequency [Hz]"	"Sound Pessure Level [dB]  / [2.83V 1m] "	"Frequency [Hz]"	"Sound Pessure Level [dB]  / [2.83V 1m] "	"Frequency [Hz]"	"Sound Pessure Level [dB]  / [2.83V 1m] "	"Frequency [Hz]"	"Sound Pessure Level [dB]  / [2.83V 1m] "	"Frequency [Hz]"	"Sound Pessure Level [dB]  / [2.83V 1m] "	"Frequency [Hz]"	"Sound Pessure Level [dB]  / [2.83V 1m] "	"Frequency [Hz]"	"Sound Pessure Level [dB]  / [2.83V 1m] "	"Frequency [Hz]"	"Sound Pessure Level [dB]  / [2.83V 1m] "	"Frequency [Hz]"	"Sound Pessure Level [dB]  / [2.83V 1m] "	"Frequency [Hz]"	"Sound Pessure Level [dB]  / [2.83V 1m] "
20.5078	46.6265	20.5078	46.2929	20.5078	46.7346	20.5078	45.733	20.5078	46.5928	20.5078	44.9206	20.5078	46.1437	20.5078	43.7971	20.5078	45.279	20.5078	42.2514	20.5078	43.7926	20.5078	40.0665	20.5078	41.2476	20.5078	36.764	20.5078	36.4517	20.5078	31.0925	20.5078	27.2467	20.5078	26.5925	20.5078	36.7537	20.5078	34.5206	20.5078	42.6454	20.5078	39.4369	20.5078	46.0284	20.5078	42.6464	20.5078	48.1847	20.5078	44.9671	20.5078	49.5763	20.5078	46.731	20.5078	50.4314	20.5078	48.1	20.5078	50.8853	20.5078	49.1626	20.5078	51.0237	20.5078	49.969	20.5078	50.9007	20.5078	50.5457
21.9727	48.8499	21.9727	48.5405	21.9727	48.9619	21.9727	48.0361	21.9727	48.8551	21.9727	47.3203	21.9727	48.4832	21.9727	46.3556	21.9727	47.7629	21.9727	45.075	21.9727	46.5486	21.9727	43.3639	21.9727	44.5703	21.9727	41.0287	21.9727	41.2784	21.9727	37.7964	21.9727	35.8591	21.9727	34.1822	21.9727	36.1637	21.9727	35.0745	21.9727	42.159	21.9727	39.1995	21.9727	45.965	21.9727	42.5692	21.9727	48.3691	21.9727	45.0763	21.9727	49.9084	21.9727	46.9809	21.9727	50.8539	21.9727	48.451	21.9727	51.3615	21.9727	49.5849	21.9727	51.5277	21.9727	50.4396	21.9727	51.4116	21.9727	51.0455
23.4375	50.8861	23.4375	50.6354	23.4375	50.9605	23.4375	50.2121	23.4375	50.8384	23.4375	49.6036	23.4375	50.4775	23.4375	48.7796	23.4375	49.8034	23.4375	47.6847	23.4375	48.687	23.4375	46.2224	23.4375	46.8902	23.4375	44.214	23.4375	43.8957	23.4375	41.2787	23.4375	38.0904	23.4375	36.3383	23.4375	22.8134	23.4375	22.7366	23.4375	39.5398	23.4375	32.8739	23.4375	45.0319	23.4375	39.976	23.4375	48.0324	23.4375	43.8	23.4375	49.8576	23.4375	46.3519	23.4375	50.9585	23.4375	48.1916	23.4375	51.5513	23.4375	49.5516	23.4375	51.7556	23.4375	50.5468	23.4375	51.6393	23.4375	51.2349
24.9023	51.4173	24.9023	51.1178	24.9023	51.5179	24.9023	50.6199	24.9023	51.3989	24.9023	49.9043	24.9023	51.0145	24.9023	48.9279	24.9023	50.2803	24.9023	47.6108	24.9023	49.0449	24.9023	45.8049	24.9023	47.0126	24.9023	43.2067	24.9023	43.4799	24.9023	39.0378	24.9023	35.7843	24.9023	29.9679	24.9023	33.1599	24.9023	31.0857	24.9023	43.2433	24.9023	39.9275	24.9023	47.7135	24.9023	44.2984	24.9023	50.3533	24.9023	47.1529	24.9023	52.0145	24.9023	49.2103	24.9023	53.0383	24.9023	50.7536	24.9023	53.6026	24.9023	51.9204	24.9023	53.8118	24.9023	52.7839	24.9023	53.7275	24.9023	53.3819
26.3672	52.9514	26.3672	52.6555	26.3672	53.0465	26.3672	52.1595	26.3672	52.92	26.3672	51.4448	26.3672	52.5254	26.3672	50.4683	26.3672	51.7781	26.3672	49.1509	26.3672	50.5248	26.3672	47.3456	26.3672	48.4658	26.3672	44.7517	26.3672	44.8814	26.3672	40.6037	26.3672	36.984	26.3672	31.7734	26.3672	34.9174	26.3672	32.7868	26.3672	44.8486	26.3672	41.462	26.3672	49.2728	26.3672	45.817	26.3672	51.8915	26.3672	48.6666	26.3672	53.5409	26.3672	50.7217	26.3672	54.5578	26.3672	52.2639	26.3672	55.1178	26.3672	53.4301	26.3672	55.3243	26.3672	54.2935	26.3672	55.2384	26.3672	54.8919
27.832	55.0795	27.832	54.7878	27.832	55.1891	27.832	54.3155	27.832	55.0981	27.832	53.6475	27.832	54.7661	27.832	52.7493	27.832	54.1214	27.832	51.5581	27.832	53.0384	27.832	49.9616	27.832	51.2844	27.832	47.7439	27.832	48.3541	27.832	44.4135	27.832	42.6698	27.832	38.3602	27.832	14.8965	27.832	16.9499	27.832	43.5565	27.832	39.6683	27.832	49.276	27.832	45.4758	27.832	52.3618	27.832	48.8798	27.832	54.2389	27.832	51.2241	27.832	55.3788	27.832	52.9397	27.832	56.0052	27.832	54.217	27.832	56.242	27.832	55.1522	27.832	56.1597	27.832	55.7938
29.2969	56.5241	29.2969	56.2342	29.2969	56.6317	29.2969	55.7631	29.2969	56.5387	29.2969	55.0955	29.2969	56.2055	29.2969	54.1966	29.2969	55.5608	29.2969	53.0028	29.2969	54.4803	29.2969	51.4008	29.2969	52.7339	29.2969	49.1724	29.2969	49.8232	29.2969	45.8187	29.2969	44.206	29.2969	39.6927	29.2969	18.5263	29.2969	20.4651	29.2969	44.8593	29.2969	41.2821	29.2969	50.6357	29.2969	47.0193	29.2969	53.7463	29.2969	50.3973	29.2969	55.6404	29.2969	52.7265	29.2969	56.7946	29.2969	54.4308	29.2969	57.4338	29.2969	55.6982	29.2969	57.6825	29.2969	56.6237	29.2969	57.6112	29.2969	57.2556
30.7617	57.9258	30.7617	57.6284	30.7617	58.0391	30.7617	57.1477	30.7617	57.9503	30.7617	56.468	30.7617	57.6203	30.7617	55.5539	30.7617	56.9787	30.7617	54.3407	30.7617	55.9029	30.7617	52.7126	30.7617	54.1656	30.7617	50.445	30.7617	51.2772	30.7617	47.0188	30.7617	45.7418	30.7617	40.68	30.7617	25.4849	30.7617	25.0746	30.7617	46.1565	30.7617	43.0162	30.7617	51.9745	30.7617	48.5825	30.7617	55.1065	30.7617	51.9003	30.7617	57.0158	30.7617	54.1989	30.7617	58.1825	30.7617	55.885	30.7617	58.8326	30.7617	57.1401	30.7617	59.0908	30.7617	58.0565	30.7617	59.0281	30.7617	58.6803
32.2266	59.2468	32.2266	58.9556	32.2266	59.3507	32.2266	58.4783	32.2266	59.2486	32.2266	57.7996	32.2266	58.8997	32.2266	56.8841	32.2266	58.2311	32.2266	55.6668	32.2266	57.1147	32.2266	54.0307	32.2266	55.3104	32.2266	51.7478	32.2266	52.2879	32.2266	48.2886	32.2266	46.3368	32.2266	41.8415	32.2266	27.7487	32.2266	27.8468	32.2266	48.219	32.2266	44.578	32.2266	53.7113	32.2266	50.0633	32.2266	56.7274	32.2266	53.3562	32.2266	58.5773	32.2266	55.6458	32.2266	59.7079	32.2266	57.33	32.2266	60.3337	32.2266	58.5874	32.2266	60.5744	32.2266	59.5089	32.2266	60.4984	32.2266	60.1405
33.6914	60.7083	33.6914	60.4182	33.6914	60.8105	33.6914	59.9418	33.6914	60.7059	33.6914	59.2642	33.6914	60.354	33.6914	58.3505	33.6914	59.682	33.6914	57.1369	33.6914	58.5626	33.6914	55.5082	33.6914	56.7569	33.6914	53.2406	33.6914	53.7383	33.6914	49.8164	33.6914	47.8093	33.6914	43.4838	33.6914	26.936	33.6914	27.2647	33.6914	49.547	33.6914	45.7766	33.6914	55.0763	33.6914	51.3625	33.6914	58.1044	33.6914	54.691	33.6914	59.9605	33.6914	56.9994	33.6914	61.0948	33.6914	58.6958	33.6914	61.7227	33.6914	59.9618	33.6914	61.9639	33.6914	60.8898	33.6914	61.8867	33.6914	61.5259
35.1563	62.1745	35.1563	61.8831	35.1563	62.2776	35.1563	61.4056	35.1563	62.1736	35.1563	60.7275	35.1563	61.822	35.1563	59.8153	35.1563	61.1506	35.1563	58.6065	35.1563	60.0328	35.1563	56.9894	35.1563	58.2324	35.1563	54.7469	35.1563	55.2296	35.1563	51.3818	35.1563	49.3636	35.1563	45.2479	35.1563	26.7588	35.1563	24.8414	35.1563	50.84	35.1563	46.7951	35.1563	56.4183	35.1563	52.5478	35.1563	59.4597	35.1563	55.9359	35.1563	61.3198	35.1563	58.2765	35.1563	62.4541	35.1563	59.9942	35.1563	63.0795	35.1563	61.2763	35.1563	63.3161	35.1563	62.217	35.1563	63.2326	35.1563	62.8635
36.6211	63.5844	36.6211	63.2885	36.6211	63.6915	36.6211	62.806	36.6211	63.591	36.6211	62.1227	36.6211	63.2426	36.6211	61.2052	36.6211	62.5748	36.6211	59.9915	36.6211	61.4621	36.6211	58.3703	36.6211	59.671	36.6211	56.1255	36.6211	56.6892	36.6211	52.7618	36.6211	50.8943	36.6211	46.6445	36.6211	26.5325	36.6211	26.6325	36.6211	52.1044	36.6211	48.1333	36.6211	57.7417	36.6211	53.8951	36.6211	60.8043	36.6211	57.2881	36.6211	62.6758	36.6211	59.6329	36.6211	63.8172	36.6211	61.3545	36.6211	64.447	36.6211	62.6403	36.6211	64.686	36.6211	63.5842	36.6211	64.603	36.6211	64.2329
38.0859	64.8709	38.0859	64.575	38.0859	64.9756	38.0859	64.0902	38.0859	64.8695	38.0859	63.403	38.0859	64.5115	38.0859	62.4798	38.0859	63.8284	38.0859	61.2589	38.0859	62.6918	38.0859	59.6282	38.0859	60.8604	38.0859	57.37	38.0859	57.7983	38.0859	53.9832	38.0859	51.7544	38.0859	47.8075	38.0859	33.0474	38.0859	30.9097	38.0859	53.8336	38.0859	49.5785	38.0859	59.2764	38.0859	55.2654	38.0859	62.2702	38.0859	58.6382	38.0859	64.1062	38.0859	60.977	38.0859	65.2256	38.0859	62.699	38.0859	65.8398	38.0859	63.9885	38.0859	66.0667	38.0859	64.9383	38.0859	65.9735	38.0859	65.5946
39.5508	66.1538	39.5508	65.8567	39.5508	66.2576	39.5508	65.3691	39.5508	66.1482	39.5508	64.6777	39.5508	65.7839	39.5508	63.7493	39.5508	65.0905	39.5508	62.5222	39.5508	63.9375	39.5508	60.8845	39.5508	62.0786	39.5508	58.6179	39.5508	58.962	39.5508	55.2193	39.5508	52.7466	39.5508	49.0188	39.5508	36.7627	39.5508	33.1246	39.5508	55.3869	39.5508	50.907	39.5508	60.7086	39.5508	56.5629	39.5508	63.6576	39.5508	59.9288	39.5508	65.4697	39.5508	62.2676	39.5508	66.5738	39.5508	63.9928	39.5508	67.1768	39.5508	65.2875	39.5508	67.3945	39.5508	66.2436	39.5508	67.2933	39.5508	66.9069
41.0156	67.5745	41.0156	67.2698	41.0156	67.6895	41.0156	66.7784	41.0156	67.5954	41.0156	66.088	41.0156	67.2522	41.0156	65.1675	41.0156	66.5893	41.0156	63.9592	41.0156	65.4834	41.0156	62.3594	41.0156	63.7063	41.0156	60.17	41.0156	60.7612	41.0156	56.9548	41.0156	55.1037	41.0156	51.4468	41.0156	30.3581	41.0156	41.2706	41.0156	55.7564	41.0156	51.7221	41.0156	61.5045	41.0156	57.4717	41.0156	64.6004	41.0156	60.9114	41.0156	66.4846	41.0156	63.2953	41.0156	67.6293	41.0156	65.0499	41.0156	68.2561	41.0156	66.3644	41.0156	68.487	41.0156	67.3333	41.0156	68.391	41.0156	68.0034
42.4805	68.588	42.4805	68.2683	42.4805	68.7088	42.4805	67.752	42.4805	68.6114	42.4805	67.0245	42.4805	68.2546	42.4805	66.0507	42.4805	67.5651	42.4805	64.7652	42.4805	66.4138	42.4805	63.0472	42.4805	64.5576	42.4805	60.656	42.4805	61.4564	42.4805	57.0155	42.4805	55.3794	42.4805	50.019	42.4805	44.2824	42.4805	39.6064	42.4805	58.0168	42.4805	54.2578	42.4805	63.2343	42.4805	59.478	42.4805	66.1637	42.4805	62.6798	42.4805	67.9738	42.4805	64.9343	42.4805	69.0825	42.4805	66.6099	42.4805	69.6932	42.4805	67.873	42.4805	69.9203	42.4805	68.8078	42.4805	69.8296	42.4805	69.4555
43.9453	69.5768	43.9453	69.246	43.9453	69.7113	43.9453	68.7214	43.9453	69.6303	43.9453	67.9895	43.9453	69.2936	43.9453	67.017	43.9453	68.6302	43.9453	65.7414	43.9453	67.5157	43.9453	64.0484	43.9453	65.7178	43.9453	61.7127	43.9453	62.727	43.9453	58.2108	43.9453	56.9305	43.9453	51.8024	43.9453	37.3408	43.9453	41.5858	43.9453	58.1793	43.9453	54.7251	43.9453	63.7863	43.9453	60.076	43.9453	66.8429	43.9453	63.3454	43.9453	68.7137	43.9453	65.6421	43.9453	69.8551	43.9453	67.3476	43.9453	70.4832	43.9453	68.6334	43.9453	70.7173	43.9453	69.5854	43.9453	70.626	43.9453	70.2451
45.4102	70.4004	45.4102	70.0889	45.4102	70.5111	45.4102	69.5802	45.4102	70.3997	45.4102	68.8615	45.4102	70.0223	45.4102	67.8996	45.4102	69.3007	45.4102	66.632	45.4102	68.0961	45.4102	64.9439	45.4102	66.142	45.4102	62.6094	45.4102	62.8241	45.4102	59.1055	45.4102	55.9724	45.4102	52.725	45.4102	47.9692	45.4102	43.8266	45.4102	60.7339	45.4102	55.8091	45.4102	65.5853	45.4102	61.074	45.4102	68.3474	45.4102	64.3174	45.4102	70.0512	45.4102	66.6041	45.4102	71.0809	45.4102	68.3088	45.4102	71.6282	45.4102	69.6014	45.4102	71.8021	45.4102	70.5681	45.4102	71.6655	45.4102	71.2513
46.875	71.3873	46.875	71.0929	46.875	71.4789	46.875	70.6007	46.875	71.3457	46.875	69.8995	46.875	70.9436	46.875	68.959	46.875	70.1946	46.875	67.7211	46.875	68.9606	46.875	66.0789	46.875	66.9763	46.875	63.8234	46.875	63.6279	46.875	60.4793	46.875	56.7393	46.875	54.5502	46.875	48.8149	46.875	42.3835	46.875	61.5232	46.875	55.8789	46.875	66.3689	46.875	61.5524	46.875	69.1372	46.875	64.9523	46.875	70.8537	46.875	67.3243	46.875	71.8988	46.875	69.0831	46.875	72.4607	46.875	70.4116	46.875	72.6453	46.875	71.4011	46.875	72.5136	46.875	72.0965
48.3398	72.6009	48.3398	72.3022	48.3398	72.6952	48.3398	71.8029	48.3398	72.564	48.3398	71.0905	48.3398	72.1642	48.3398	70.1325	48.3398	71.4192	48.3398	68.867	48.3398	70.1924	48.3398	67.1796	48.3398	68.2216	48.3398	64.8436	48.3398	64.8997	48.3398	61.3249	48.3398	58.0532	48.3398	54.7654	48.3398	48.3466	48.3398	40.4562	48.3398	62.523	48.3398	57.6641	48.3398	67.474	48.3398	63.1281	48.3398	70.283	48.3398	66.4232	48.3398	72.0244	48.3398	68.7297	48.3398	73.0889	48.3398	70.4413	48.3398	73.6685	48.3398	71.7331	48.3398	73.871	48.3398	72.6927	48.3398	73.7584	48.3398	73.3629
51.2695	73.9725	51.2695	73.6452	51.2695	74.0916	51.2695	73.1138	51.2695	73.9808	51.2695	72.3664	51.2695	73.5968	51.2695	71.3712	51.2695	72.8623	51.2695	70.0663	51.2695	71.6398	51.2695	68.3364	51.2695	69.6639	51.2695	65.9502	51.2695	66.3163	51.2695	62.356	51.2695	59.3496	51.2695	55.5908	51.2695	50.4534	51.2695	43.6682	51.2695	64.1732	51.2695	59.1487	51.2695	69.0672	51.2695	64.4958	51.2695	71.8507	51.2695	67.765	51.2695	73.5737	51.2695	70.0746	51.2695	74.6205	51.2695	71.8029	51.2695	75.181	51.2695	73.1186	51.2695	75.3619	51.2695	74.1052	51.2695	75.2252	51.2695	74.8031
52.7344	74.1962	52.7344	73.8578	52.7344	74.3245	52.7344	73.3143	52.7344	74.221	52.7344	72.554	52.7344	73.842	52.7344	71.5458	52.7344	73.1099	52.7344	70.2287	52.7344	71.8868	52.7344	68.4881	52.7344	69.9063	52.7344	66.0937	52.7344	66.546	52.7344	62.4958	52.7344	59.5318	52.7344	55.7422	52.7344	50.9919	52.7344	43.9466	52.7344	64.4909	52.7344	59.2783	52.7344	69.3597	52.7344	64.6312	52.7344	72.1321	52.7344	67.9103	52.7344	73.8467	52.7344	70.2323	52.7344	74.8855	52.7344	71.9749	52.7344	75.4367	52.7344	73.3059	52.7344	75.6068	52.7344	74.3081	52.7344	75.4574	52.7344	75.0212
54.1992	74.4041	54.1992	74.0552	54.1992	74.5404	54.1992	73.4988	54.1992	74.442	54.1992	72.7242	54.1992	74.0649	54.1992	71.7005	54.1992	73.3315	54.1992	70.3676	54.1992	72.1035	54.1992	68.6114	54.1992	70.1136	54.1992	66.202	54.1992	66.7348	54.1992	62.5891	54.1992	59.6582	54.1992	55.8208	54.1992	51.4172	54.1992	44.6654	54.1992	64.7648	54.1992	59.4397	54.1992	69.6111	54.1992	64.7711	54.1992	72.3748	54.1992	68.0507	54.1992	74.0847	54.1992	70.3805	54.1992	75.1192	54.1992	72.1345	54.1992	75.6651	54.1992	73.4788	54.1992	75.8278	54.1992	74.4949	54.1992	75.6689	54.1992	75.2211
55.6641	74.5163	55.6641	74.1613	55.6641	74.6566	55.6641	73.5977	55.6641	74.5597	55.6641	72.8157	55.6641	74.1809	55.6641	71.7862	55.6641	73.4421	55.6641	70.4509	55.6641	72.2041	55.6641	68.6995	55.6641	70.1968	55.6641	66.3094	55.6641	66.7833	55.6641	62.7515	55.6641	59.5866	55.6641	56.2005	55.6641	52.0379	55.6641	44.072	55.6641	64.9973	55.6641	59.2043	55.6641	69.7918	55.6641	64.6457	55.6641	72.5332	55.6641	67.9776	55.6641	74.2287	55.6641	70.3438	55.6641	75.2508	55.6641	72.1281	55.6641	75.7837	55.6641	73.4994	55.6641	75.9318	55.6641	74.54	55.6641	75.7558	55.6641	75.2884
58.5938	74.3483	58.5938	73.9782	58.5938	74.4999	58.5938	73.3965	58.5938	74.4096	58.5938	72.5946	58.5938	74.0327	58.5938	71.5448	58.5938	73.291	58.5938	70.1906	58.5938	72.0455	58.5938	68.4231	58.5938	70.026	58.5938	66.0209	58.5938	66.592	58.5938	62.4543	58.5938	59.3323	58.5938	55.8745	58.5938	52.0398	58.5938	42.3904	58.5938	64.8809	58.5938	58.8459	58.5938	69.6588	58.5938	64.3384	58.5938	72.3966	58.5938	67.6976	58.5938	74.0921	58.5938	70.088	58.5938	75.1142	58.5938	71.896	58.5938	75.6449	58.5938	73.2901	58.5938	75.7869	58.5938	74.3518	58.5938	75.6006	58.5938	75.1186
60.0586	74.3241	60.0586	73.9639	60.0586	74.4641	60.0586	73.3912	60.0586	74.3601	60.0586	72.5984	60.0586	73.967	60.0586	71.5592	60.0586	73.2061	60.0586	70.2188	60.0586	71.9373	60.0586	68.4718	60.0586	69.8874	60.0586	66.1038	60.0586	66.4041	60.0586	62.6088	60.0586	58.9983	60.0586	56.2831	60.0586	52.6752	60.0586	42.8283	60.0586	64.9357	60.0586	58.5979	60.0586	69.6489	60.0586	64.1895	60.0586	72.366	60.0586	67.5921	60.0586	74.0546	60.0586	70.0073	60.0586	75.0754	60.0586	71.8314	60.0586	75.6068	60.0586	73.2367	60.0586	75.7494	60.0586	74.3061	60.0586	75.5625	60.0586	75.0778
62.9883	74.6806	62.9883	74.3294	62.9883	74.8099	62.9883	73.7637	62.9883	74.6944	62.9883	72.9757	62.9883	74.2904	62.9883	71.9388	62.9883	73.5222	62.9883	70.5977	62.9883	72.2555	62.9883	68.845	62.9883	70.2291	62.9883	66.4614	62.9883	66.8275	62.9883	62.9237	62.9883	59.7857	62.9883	56.4119	62.9883	51.0354	62.9883	40.993	62.9883	64.6788	62.9883	59.0975	62.9883	69.5694	62.9883	64.653	62.9883	72.3691	62.9883	68.023	62.9883	74.116	62.9883	70.4077	62.9883	75.186	62.9883	72.2014	62.9883	75.7621	62.9883	73.5753	62.9883	75.9462	62.9883	74.6122	62.9883	75.798	62.9883	75.3496
64.4531	74.8483	64.4531	74.509	64.4531	74.9636	64.4531	73.9536	64.4531	74.8311	64.4531	73.1748	64.4531	74.4062	64.4531	72.1464	64.4531	73.6115	64.4531	70.8135	64.4531	72.309	64.4531	69.0685	64.4531	70.2275	64.4531	66.6917	64.4531	66.7171	64.4531	63.1593	64.4531	59.2775	64.4531	56.6643	64.4531	52.8291	64.4531	43.348	64.4531	65.2187	64.4531	59.4741	64.4531	69.9553	64.4531	64.9834	64.4531	72.7015	64.4531	68.342	64.4531	74.426	64.4531	70.722	64.4531	75.4871	64.4531	72.5127	64.4531	76.0607	64.4531	73.8841	64.4531	76.2455	64.4531	74.9184	64.4531	76.0992	64.4531	75.6533
67.3828	75.7242	67.3828	75.4322	67.3828	75.797	67.3828	74.9307	67.3828	75.6266	67.3828	74.2156	67.3828	75.1693	67.3828	73.2659	67.3828	74.3507	67.3828	72.0351	67.3828	73.0391	67.3828	70.4325	67.3828	70.979	67.3828	68.2762	67.3828	67.5675	67.3828	65.1562	67.3828	60.6101	67.3828	59.8321	67.3828	51.2099	67.3828	40.8091	67.3828	65.1804	67.3828	57.9965	67.3828	70.1232	67.3828	64.6983	67.3828	72.9574	67.3828	68.4438	67.3828	74.7378	67.3828	71.0048	67.3828	75.8421	67.3828	72.8901	67.3828	76.4512	67.3828	74.3105	67.3828	76.6646	67.3828	75.366	67.3828	76.539	67.3828	76.1036
68.8477	75.9009	68.8477	75.6246	68.8477	75.9562	68.8477	75.1367	68.8477	75.7664	68.8477	74.4326	68.8477	75.2882	68.8477	73.4904	68.8477	74.447	68.8477	72.262	68.8477	73.1105	68.8477	70.6531	68.8477	71.0205	68.8477	68.4747	68.8477	67.5632	68.8477	65.2965	68.8477	60.4648	68.8477	59.7864	68.8477	51.871	68.8477	36.788	68.8477	65.405	68.8477	58.851	68.8477	70.3024	68.8477	65.2853	68.8477	73.1312	68.8477	68.9393	68.8477	74.9211	68.8477	71.4465	68.8477	76.0427	68.8477	73.2911	68.8477	76.6739	68.8477	74.6764	68.8477	76.9124	68.8477	75.6998	68.8477	76.8139	68.8477	76.4072
