"SPL Vertical"																																																																							
"On-Axis"		"10°"		"-10°"		"20°"		"-20°"		"30°"		"-30°"		"40°"		"-40°"		"50°"		"-50°"		"60°"		"-60°"		"70°"		"-70°"		"80°"		"-80°"		"90°"		"-90°"		"100°"		"-100°"		"110°"		"-110°"		"120°"		"-120°"		"130°"		"-130°"		"140°"		"-140°"		"150°"		"-150°"		"160°"		"-160°"		"170°"		"-170°"		"180°"	
"Frequency [Hz]"	"Sound Pessure Level [dB]  / [2.83V 1m] "	"Frequency [Hz]"	"Sound Pessure Level [dB]  / [2.83V 1m] "	"Frequency [Hz]"	"Sound Pessure Level [dB]  / [2.83V 1m] "	"Frequency [Hz]"	"Sound Pessure Level [dB]  / [2.83V 1m] "	"Frequency [Hz]"	"Sound Pessure Level [dB]  / [2.83V 1m] "	"Frequency [Hz]"	"Sound Pessure Level [dB]  / [2.83V 1m] "	"Frequency [Hz]"	"Sound Pessure Level [dB]  / [2.83V 1m] "	"Frequency [Hz]"	"Sound Pessure Level [dB]  / [2.83V 1m] "	"Frequency [Hz]"	"Sound Pessure Level [dB]  / [2.83V 1m] "	"Frequency [Hz]"	"Sound Pessure Level [dB]  / [2.83V 1m] "	"Frequency [Hz]"	"Sound Pessure Level [dB]  / [2.83V 1m] "	"Frequency [Hz]"	"Sound Pessure Level [dB]  / [2.83V 1m] "	"Frequency [Hz]"	"Sound Pessure Level [dB]  / [2.83V 1m] "	"Frequency [Hz]"	"Sound Pessure Level [dB]  / [2.83V 1m] "	"Frequency [Hz]"	"Sound Pessure Level [dB]  / [2.83V 1m] "	"Frequency [Hz]"	"Sound Pessure Level [dB]  / [2.83V 1m] "	"Frequency [Hz]"	"Sound Pessure Level [dB]  / [2.83V 1m] "	"Frequency [Hz]"	"Sound Pessure Level [dB]  / [2.83V 1m] "	"Frequency [Hz]"	"Sound Pessure Level [dB]  / [2.83V 1m] "	"Frequency [Hz]"	"Sound Pessure Level [dB]  / [2.83V 1m] "	"Frequency [Hz]"	"Sound Pessure Level [dB]  / [2.83V 1m] "	"Frequency [Hz]"	"Sound Pessure Level [dB]  / [2.83V 1m] "	"Frequency [Hz]"	"Sound Pessure Level [dB]  / [2.83V 1m] "	"Frequency [Hz]"	"Sound Pessure Level [dB]  / [2.83V 1m] "	"Frequency [Hz]"	"Sound Pessure Level [dB]  / [2.83V 1m] "	"Frequency [Hz]"	"Sound Pessure Level [dB]  / [2.83V 1m] "	"Frequency [Hz]"	"Sound Pessure Level [dB]  / [2.83V 1m] "	"Frequency [Hz]"	"Sound Pessure Level [dB]  / [2.83V 1m] "	"Frequency [Hz]"	"Sound Pessure Level [dB]  / [2.83V 1m] "	"Frequency [Hz]"	"Sound Pessure Level [dB]  / [2.83V 1m] "	"Frequency [Hz]"	"Sound Pessure Level [dB]  / [2.83V 1m] "	"Frequency [Hz]"	"Sound Pessure Level [dB]  / [2.83V 1m] "	"Frequency [Hz]"	"Sound Pessure Level [dB]  / [2.83V 1m] "	"Frequency [Hz]"	"Sound Pessure Level [dB]  / [2.83V 1m] "	"Frequency [Hz]"	"Sound Pessure Level [dB]  / [2.83V 1m] "	"Frequency [Hz]"	"Sound Pessure Level [dB]  / [2.83V 1m] "
20.5078	60.5853	20.5078	60.3149	20.5078	60.8791	20.5078	60.0717	20.5078	61.1883	20.5078	59.8564	20.5078	61.5013	20.5078	59.6674	20.5078	61.8035	20.5078	59.502	20.5078	62.0788	20.5078	59.3576	20.5078	62.3111	20.5078	59.2323	20.5078	62.4857	20.5078	59.1257	20.5078	62.5907	20.5078	59.0388	20.5078	62.6177	20.5078	58.9749	20.5078	62.5623	20.5078	58.9391	20.5078	62.4246	20.5078	58.9381	20.5078	62.209	20.5078	58.9801	20.5078	61.9245	20.5078	59.0733	20.5078	61.5844	20.5078	59.2249	20.5078	61.2057	20.5078	59.4386	20.5078	60.8085	20.5078	59.7137	20.5078	60.4141	20.5078	60.0432
21.9727	61.7557	21.9727	61.2829	21.9727	62.2582	21.9727	60.8539	21.9727	62.7722	21.9727	60.4776	21.9727	63.277	21.9727	60.1585	21.9727	63.7511	21.9727	59.8968	21.9727	64.1738	21.9727	59.6909	21.9727	64.5268	21.9727	59.5382	21.9727	64.795	21.9727	59.4369	21.9727	64.967	21.9727	59.3871	21.9727	65.0353	21.9727	59.391	21.9727	64.9968	21.9727	59.4526	21.9727	64.8524	21.9727	59.5776	21.9727	64.6073	21.9727	59.7716	21.9727	64.2704	21.9727	60.0388	21.9727	63.8548	21.9727	60.3799	21.9727	63.3769	21.9727	60.7907	21.9727	62.8564	21.9727	61.2613	21.9727	62.3151	21.9727	61.776
23.4375	64.0369	23.4375	63.6201	23.4375	64.4789	23.4375	63.2403	23.4375	64.9305	23.4375	62.9056	23.4375	65.3735	23.4375	62.6199	23.4375	65.7888	23.4375	62.3844	23.4375	66.1578	23.4375	62.1982	23.4375	66.4635	23.4375	62.0596	23.4375	66.6919	23.4375	61.9674	23.4375	66.8323	23.4375	61.9212	23.4375	66.878	23.4375	61.9221	23.4375	66.8265	23.4375	61.9724	23.4375	66.6794	23.4375	62.0758	23.4375	66.4426	23.4375	62.236	23.4375	66.126	23.4375	62.4562	23.4375	65.7431	23.4375	62.7377	23.4375	65.3105	23.4375	63.0786	23.4375	64.8473	23.4375	63.4727	23.4375	64.3736	23.4375	63.9093
24.9023	65.8763	24.9023	65.4943	24.9023	66.2803	24.9023	65.1449	24.9023	66.6928	24.9023	64.8351	24.9023	67.0977	24.9023	64.5689	24.9023	67.4778	24.9023	64.3476	24.9023	67.8161	24.9023	64.1713	24.9023	68.0968	24.9023	64.039	24.9023	68.3064	24.9023	63.9501	24.9023	68.4348	24.9023	63.9046	24.9023	68.4754	24.9023	63.9036	24.9023	68.4256	24.9023	63.949	24.9023	68.2869	24.9023	64.0437	24.9023	68.0649	24.9023	64.1907	24.9023	67.7692	24.9023	64.3924	24.9023	67.4128	24.9023	64.6499	24.9023	67.0115	24.9023	64.9613	24.9023	66.5835	24.9023	65.3215	24.9023	66.1473	24.9023	65.7212
26.3672	67.5235	26.3672	67.1667	26.3672	67.9007	26.3672	66.8402	26.3672	68.2853	26.3672	66.5506	26.3672	68.6626	26.3672	66.3019	26.3672	69.0163	26.3672	66.0956	26.3672	69.3304	26.3672	65.9319	26.3672	69.5899	26.3672	65.81	26.3672	69.7823	26.3672	65.7294	26.3672	69.8979	26.3672	65.6896	26.3672	69.9307	26.3672	65.6912	26.3672	69.8785	26.3672	65.7355	26.3672	69.7432	26.3672	65.8245	26.3672	69.5306	26.3672	65.9605	26.3672	69.2505	26.3672	66.1453	26.3672	68.9156	26.3672	66.3797	26.3672	68.5415	26.3672	66.6626	26.3672	68.145	26.3672	66.9899	26.3672	67.7437	26.3672	67.3539
27.832	68.9985	27.832	68.6587	27.832	69.3575	27.832	68.3476	27.832	69.7237	27.832	68.0717	27.832	70.0828	27.832	67.8348	27.832	70.4195	27.832	67.6386	27.832	70.7186	27.832	67.4835	27.832	70.9656	27.832	67.3689	27.832	71.1485	27.832	67.2941	27.832	71.258	27.832	67.2589	27.832	71.2884	27.832	67.2635	27.832	71.2375	27.832	67.3087	27.832	71.1075	27.832	67.396	27.832	70.9042	27.832	67.5272	27.832	70.6371	27.832	67.7037	27.832	70.3187	27.832	67.926	27.832	69.964	27.832	68.1931	27.832	69.5893	27.832	68.5013	27.832	69.2108	27.832	68.8438
29.2969	70.6884	29.2969	70.3674	29.2969	71.0264	29.2969	70.0726	29.2969	71.3701	29.2969	69.8103	29.2969	71.706	29.2969	69.5843	29.2969	72.0198	29.2969	69.3966	29.2969	72.2968	29.2969	69.2478	29.2969	72.5238	29.2969	69.1374	29.2969	72.6892	29.2969	69.065	29.2969	72.7845	29.2969	69.03	29.2969	72.8044	29.2969	69.0325	29.2969	72.7475	29.2969	69.0728	29.2969	72.6161	29.2969	69.152	29.2969	72.4164	29.2969	69.2713	29.2969	72.1581	29.2969	69.4318	29.2969	71.8537	29.2969	69.6342	29.2969	71.5179	29.2969	69.8777	29.2969	71.1661	29.2969	70.1596	29.2969	70.8137	29.2969	70.4744
30.7617	72.3512	30.7617	72.0431	30.7617	72.672	30.7617	71.7563	30.7617	72.9947	30.7617	71.497	30.7617	73.3069	30.7617	71.2692	30.7617	73.5952	30.7617	71.0754	30.7617	73.8462	30.7617	70.9166	30.7617	74.0474	30.7617	70.7931	30.7617	74.1883	30.7617	70.7048	30.7617	74.2609	30.7617	70.6519	30.7617	74.2605	30.7617	70.6347	30.7617	74.1862	30.7617	70.654	30.7617	74.0406	30.7617	70.7113	30.7617	73.8303	30.7617	70.8081	30.7617	73.5653	30.7617	70.9462	30.7617	73.2583	30.7617	71.1265	30.7617	72.924	30.7617	71.349	30.7617	72.578	30.7617	71.6116	30.7617	72.2355	30.7617	71.9097
32.2266	73.8271	32.2266	73.5455	32.2266	74.1206	32.2266	73.2835	32.2266	74.4166	32.2266	73.0464	32.2266	74.704	32.2266	72.8378	32.2266	74.9704	32.2266	72.6597	32.2266	75.2035	32.2266	72.5133	32.2266	75.3916	32.2266	72.3988	32.2266	75.5245	32.2266	72.3166	32.2266	75.5947	32.2266	72.2669	32.2266	75.5976	32.2266	72.2504	32.2266	75.5319	32.2266	72.268	32.2266	75.4001	32.2266	72.3211	32.2266	75.208	32.2266	72.4113	32.2266	74.965	32.2266	72.54	32.2266	74.6827	32.2266	72.7082	32.2266	74.3747	32.2266	72.9156	32.2266	74.0553	32.2266	73.1599	32.2266	73.7385	32.2266	73.4367
33.6914	74.8397	33.6914	74.573	33.6914	75.1198	33.6914	74.3268	33.6914	75.404	33.6914	74.1062	33.6914	75.6814	33.6914	73.9143	33.6914	75.9399	33.6914	73.7529	33.6914	76.1673	33.6914	73.6226	33.6914	76.352	33.6914	73.5235	33.6914	76.484	33.6914	73.4554	33.6914	76.5558	33.6914	73.4181	33.6914	76.563	33.6914	73.4118	33.6914	76.5045	33.6914	73.4371	33.6914	76.3829	33.6914	73.4948	33.6914	76.2041	33.6914	73.5859	33.6914	75.9772	33.6914	73.7116	33.6914	75.7137	33.6914	73.8723	33.6914	75.4267	33.6914	74.068	33.6914	75.1295	33.6914	74.2966	33.6914	74.835	33.6914	74.5544
35.1562	76.1807	35.1562	75.9121	35.1562	76.461	35.1562	75.6626	35.1562	76.7438	35.1562	75.4378	35.1562	77.018	35.1562	75.2414	35.1562	77.272	35.1562	75.0755	35.1562	77.4938	35.1562	74.9411	35.1562	77.6723	35.1562	74.8388	35.1562	77.7979	35.1562	74.7684	35.1562	77.8637	35.1562	74.73	35.1562	77.8656	35.1562	74.7236	35.1562	77.8029	35.1562	74.7494	35.1562	77.6783	35.1562	74.8081	35.1562	77.4981	35.1562	74.9002	35.1562	77.2713	35.1562	75.0266	35.1562	77.0094	35.1562	75.1873	35.1562	76.725	35.1562	75.382	35.1562	76.4313	35.1562	75.6086	35.1562	76.1406	35.1562	75.8635
36.6211	77.4866	36.6211	77.2335	36.6211	77.7499	36.6211	76.9974	36.6211	78.0146	36.6211	76.7838	36.6211	78.2704	36.6211	76.5961	36.6211	78.5063	36.6211	76.4367	36.6211	78.7112	36.6211	76.3068	36.6211	78.8747	36.6211	76.2068	36.6211	78.9879	36.6211	76.1371	36.6211	79.0442	36.6211	76.0976	36.6211	79.0401	36.6211	76.0883	36.6211	78.9751	36.6211	76.1096	36.6211	78.8522	36.6211	76.1618	36.6211	78.6775	36.6211	76.2455	36.6211	78.4601	36.6211	76.3613	36.6211	78.2108	36.6211	76.5092	36.6211	77.942	36.6211	76.689	36.6211	77.6658	36.6211	76.8988	36.6211	77.3937	36.6211	77.1355
38.0859	78.6645	38.0859	78.4213	38.0859	78.9172	38.0859	78.1943	38.0859	79.171	38.0859	77.9887	38.0859	79.4161	38.0859	77.8079	38.0859	79.642	38.0859	77.6543	38.0859	79.8377	38.0859	77.529	38.0859	79.9934	38.0859	77.4327	38.0859	80.1005	38.0859	77.3655	38.0859	80.1527	38.0859	77.3275	38.0859	80.1465	38.0859	77.3188	38.0859	80.0818	38.0859	77.3393	38.0859	79.9616	38.0859	77.3894	38.0859	79.7921	38.0859	77.4695	38.0859	79.5821	38.0859	77.58	38.0859	79.3424	38.0859	77.7208	38.0859	79.0847	38.0859	77.8917	38.0859	78.8208	38.0859	78.091	38.0859	78.5615	38.0859	78.3159
39.5508	79.8186	39.5508	79.5828	39.5508	80.0625	39.5508	79.3619	39.5508	80.3065	39.5508	79.1607	39.5508	80.5411	39.5508	78.9828	39.5508	80.7561	39.5508	78.8306	39.5508	80.9412	39.5508	78.7055	39.5508	81.0869	39.5508	78.6082	39.5508	81.1849	39.5508	78.5389	39.5508	81.2293	39.5508	78.4979	39.5508	81.217	39.5508	78.4852	39.5508	81.1481	39.5508	78.5009	39.5508	81.0257	39.5508	78.5453	39.5508	80.8562	39.5508	78.6187	39.5508	80.6485	39.5508	78.7216	39.5508	80.4132	39.5508	78.854	39.5508	80.1618	39.5508	79.0155	39.5508	79.9059	39.5508	79.2051	39.5508	79.6558	39.5508	79.42
41.0156	80.8289	41.0156	80.6021	41.0156	81.0616	41.0156	80.3877	41.0156	81.2924	41.0156	80.1906	41.0156	81.5124	41.0156	80.0144	41.0156	81.7119	41.0156	79.8616	41.0156	81.8811	41.0156	79.7337	41.0156	82.0109	41.0156	79.6317	41.0156	82.0938	41.0156	79.5561	41.0156	82.1244	41.0156	79.5071	41.0156	82.1	41.0156	79.4851	41.0156	82.0211	41.0156	79.4902	41.0156	81.8914	41.0156	79.523	41.0156	81.7174	41.0156	79.5838	41.0156	81.5083	41.0156	79.6732	41.0156	81.2747	41.0156	79.7916	41.0156	81.0283	41.0156	79.9391	41.0156	80.7801	41.0156	80.1146	41.0156	80.54	41.0156	80.3162
42.4805	81.8647	42.4805	81.6439	42.4805	82.0927	42.4805	81.4365	42.4805	82.3203	42.4805	81.2472	42.4805	82.5388	42.4805	81.0795	42.4805	82.7387	42.4805	80.9355	42.4805	82.9104	42.4805	80.8169	42.4805	83.0448	42.4805	80.7243	42.4805	83.1343	42.4805	80.6582	42.4805	83.1734	42.4805	80.6187	42.4805	83.1593	42.4805	80.606	42.4805	83.092	42.4805	80.62	42.4805	82.975	42.4805	80.661	42.4805	82.8142	42.4805	80.7291	42.4805	82.6182	42.4805	80.8245	42.4805	82.3973	42.4805	80.9473	42.4805	82.1622	42.4805	81.0972	42.4805	81.9236	42.4805	81.2729	42.4805	81.691	42.4805	81.4721
43.9453	82.234	43.9453	82.0027	43.9453	82.4709	43.9453	81.7838	43.9453	82.7055	43.9453	81.5823	43.9453	82.9282	43.9453	81.4018	43.9453	83.1288	43.9453	81.2452	43.9453	83.2969	43.9453	81.1139	43.9453	83.4228	43.9453	81.0091	43.9453	83.4984	43.9453	80.9314	43.9453	83.5183	43.9453	80.8809	43.9453	83.4804	43.9453	80.8577	43.9453	83.3863	43.9453	80.8619	43.9453	83.2409	43.9453	80.8932	43.9453	83.0528	43.9453	80.9519	43.9453	82.8328	43.9453	81.0377	43.9453	82.5927	43.9453	81.1509	43.9453	82.3446	43.9453	81.2913	43.9453	82.0994	43.9453	81.4583	43.9453	81.8659	43.9453	81.6507
45.4102	82.9378	45.4102	82.7101	45.4102	83.1706	45.4102	82.4938	45.4102	83.4003	45.4102	82.2942	45.4102	83.6177	45.4102	82.1152	45.4102	83.8129	45.4102	81.9595	45.4102	83.9757	45.4102	81.829	45.4102	84.0968	45.4102	81.7249	45.4102	84.1686	45.4102	81.6479	45.4102	84.1861	45.4102	81.5983	45.4102	84.1473	45.4102	81.5762	45.4102	84.0539	45.4102	81.5814	45.4102	83.9111	45.4102	81.6138	45.4102	83.7273	45.4102	81.6731	45.4102	83.513	45.4102	81.7592	45.4102	83.2796	45.4102	81.8719	45.4102	83.0387	45.4102	82.0108	45.4102	82.8004	45.4102	82.1751	45.4102	82.5733	45.4102	82.3635
46.875	83.6106	46.875	83.3889	46.875	83.8367	46.875	83.1779	46.875	84.0592	46.875	82.9827	46.875	84.2694	46.875	82.8072	46.875	84.4575	46.875	82.6543	46.875	84.6138	46.875	82.5259	46.875	84.7294	46.875	82.4233	46.875	84.7968	46.875	82.3473	46.875	84.8113	46.875	82.2982	46.875	84.7711	46.875	82.276	46.875	84.678	46.875	82.2806	46.875	84.5374	46.875	82.3119	46.875	84.3573	46.875	82.3693	46.875	84.1482	46.875	82.4527	46.875	83.9214	46.875	82.5616	46.875	83.6879	46.875	82.6957	46.875	83.4575	46.875	82.8542	46.875	83.2382	46.875	83.0359
48.3398	84.1549	48.3398	83.94	48.3398	84.3728	48.3398	83.7346	48.3398	84.5863	48.3398	83.5437	48.3398	84.7867	48.3398	83.3713	48.3398	84.9648	48.3398	83.2203	48.3398	85.1113	48.3398	83.093	48.3398	85.2178	48.3398	82.9906	48.3398	85.2773	48.3398	82.9142	48.3398	85.2856	48.3398	82.8642	48.3398	85.2414	48.3398	82.8407	48.3398	85.1468	48.3398	82.8434	48.3398	85.0071	48.3398	82.8721	48.3398	84.8307	48.3398	82.9264	48.3398	84.6276	48.3398	83.0058	48.3398	84.4088	48.3398	83.1097	48.3398	84.1846	48.3398	83.2377	48.3398	83.9642	48.3398	83.3889	48.3398	83.7549	48.3398	83.562
51.2695	84.8113	51.2695	84.6058	51.2695	85.0185	51.2695	84.4083	51.2695	85.2204	51.2695	84.2235	51.2695	85.409	51.2695	84.0555	51.2695	85.5756	51.2695	83.9074	51.2695	85.7116	51.2695	83.7816	51.2695	85.8091	51.2695	83.6797	51.2695	85.8617	51.2695	83.6029	51.2695	85.8654	51.2695	83.5518	51.2695	85.8193	51.2695	83.5267	51.2695	85.7254	51.2695	83.5276	51.2695	85.5894	51.2695	83.5539	51.2695	85.4191	51.2695	83.6052	51.2695	85.2242	51.2695	83.6809	51.2695	85.0152	51.2695	83.7801	51.2695	84.8018	51.2695	83.9022	51.2695	84.5926	51.2695	84.0462	51.2695	84.394	51.2695	84.2108
52.7344	85.1868	52.7344	84.9854	52.7344	85.3888	52.7344	84.7906	52.7344	85.5843	52.7344	84.6074	52.7344	85.7656	52.7344	84.44	52.7344	85.924	52.7344	84.2915	52.7344	86.0514	52.7344	84.1643	52.7344	86.1401	52.7344	84.0604	52.7344	86.1843	52.7344	83.981	52.7344	86.1803	52.7344	83.9268	52.7344	86.1277	52.7344	83.8982	52.7344	86.0289	52.7344	83.895	52.7344	85.8899	52.7344	83.9169	52.7344	85.7186	52.7344	83.9634	52.7344	85.5249	52.7344	84.0338	52.7344	85.319	52.7344	84.1273	52.7344	85.1103	52.7344	84.2433	52.7344	84.9068	52.7344	84.3807	52.7344	84.7148	52.7344	84.5385
54.1992	85.3818	54.1992	85.1844	54.1992	85.5795	54.1992	84.9932	54.1992	85.7706	54.1992	84.8134	54.1992	85.9474	54.1992	84.6489	54.1992	86.1017	54.1992	84.503	54.1992	86.2254	54.1992	84.3782	54.1992	86.3112	54.1992	84.2765	54.1992	86.3534	54.1992	84.1989	54.1992	86.3486	54.1992	84.1464	54.1992	86.2965	54.1992	84.1192	54.1992	86.1997	54.1992	84.1171	54.1992	86.064	54.1992	84.1398	54.1992	85.8972	54.1992	84.1866	54.1992	85.709	54.1992	84.2566	54.1992	85.5092	54.1992	84.3491	54.1992	85.3068	54.1992	84.4631	54.1992	85.1095	54.1992	84.5976	54.1992	84.923	54.1992	84.7515
55.6641	85.537	55.6641	85.3431	55.6641	85.7304	55.6641	85.1546	55.6641	85.9166	55.6641	84.9765	55.6641	86.0879	55.6641	84.8131	55.6641	86.2364	55.6641	84.6676	55.6641	86.3544	55.6641	84.5427	55.6641	86.4347	55.6641	84.4404	55.6641	86.4721	55.6641	84.362	55.6641	86.4635	55.6641	84.3084	55.6641	86.4086	55.6641	84.2799	55.6641	86.3103	55.6641	84.2764	55.6641	86.1745	55.6641	84.2975	55.6641	86.0092	55.6641	84.3423	55.6641	85.8238	55.6641	84.41	55.6641	85.6279	55.6641	84.4997	55.6641	85.4302	55.6641	84.6103	55.6641	85.238	55.6641	84.7409	55.6641	85.0568	55.6641	84.8903
58.5938	85.7607	58.5938	85.575	58.5938	85.9446	58.5938	85.3934	58.5938	86.1202	58.5938	85.2207	58.5938	86.2803	58.5938	85.0611	58.5938	86.4175	58.5938	84.9183	58.5938	86.5246	58.5938	84.7948	58.5938	86.595	58.5938	84.693	58.5938	86.6241	58.5938	84.6144	58.5938	86.6093	58.5938	84.5598	58.5938	86.5507	58.5938	84.5297	58.5938	86.4516	58.5938	84.5239	58.5938	86.3179	58.5938	84.5421	58.5938	86.1575	58.5938	84.5832	58.5938	85.9795	58.5938	84.6465	58.5938	85.7928	58.5938	84.7307	58.5938	85.6057	58.5938	84.8347	58.5938	85.4246	58.5938	84.9575	58.5938	85.2542	58.5938	85.0978
60.0586	85.8233	60.0586	85.6402	60.0586	86.0043	60.0586	85.4608	60.0586	86.1769	60.0586	85.29	60.0586	86.3339	60.0586	85.132	60.0586	86.4681	60.0586	84.9905	60.0586	86.5724	60.0586	84.8683	60.0586	86.6407	60.0586	84.7676	60.0586	86.6683	60.0586	84.69	60.0586	86.6527	60.0586	84.6365	60.0586	86.5944	60.0586	84.6075	60.0586	86.4967	60.0586	84.6028	60.0586	86.3653	60.0586	84.6218	60.0586	86.2082	60.0586	84.6637	60.0586	86.0342	60.0586	84.7273	60.0586	85.8521	60.0586	84.8113	60.0586	85.6697	60.0586	84.9145	60.0586	85.493	60.0586	85.0356	60.0586	85.3266	60.0586	85.1734
62.9883	85.9408	62.9883	85.763	62.9883	86.1154	62.9883	85.5875	62.9883	86.2805	62.9883	85.4196	62.9883	86.4293	62.9883	85.2634	62.9883	86.555	62.9883	85.1227	62.9883	86.6509	62.9883	85.0007	62.9883	86.7113	62.9883	84.8997	62.9883	86.7321	62.9883	84.8214	62.9883	86.7114	62.9883	84.7671	62.9883	86.6499	62.9883	84.7371	62.9883	86.5512	62.9883	84.7313	62.9883	86.4213	62.9883	84.7491	62.9883	86.2681	62.9883	84.7893	62.9883	86.1	62.9883	84.8507	62.9883	85.9253	62.9883	84.9318	62.9883	85.7511	62.9883	85.0311	62.9883	85.583	62.9883	85.1472	62.9883	85.4247	62.9883	85.2788
64.4531	85.996	64.4531	85.8205	64.4531	86.1677	64.4531	85.6467	64.4531	86.3294	64.4531	85.4798	64.4531	86.4744	64.4531	85.3241	64.4531	86.5961	64.4531	85.1835	64.4531	86.6879	64.4531	85.0612	64.4531	86.7445	64.4531	84.9597	64.4531	86.7619	64.4531	84.8809	64.4531	86.7384	64.4531	84.8258	64.4531	86.6751	64.4531	84.7951	64.4531	86.5756	64.4531	84.7886	64.4531	86.4461	64.4531	84.8056	64.4531	86.2943	64.4531	84.845	64.4531	86.1286	64.4531	84.9053	64.4531	85.9572	64.4531	84.985	64.4531	85.7867	64.4531	85.0824	64.4531	85.6223	64.4531	85.1963	64.4531	85.4677	64.4531	85.3251
67.3828	86.0595	67.3828	85.8878	67.3828	86.2263	67.3828	85.7167	67.3828	86.3821	67.3828	85.5515	67.3828	86.5207	67.3828	85.3965	67.3828	86.6355	67.3828	85.2559	67.3828	86.7206	67.3828	85.133	67.3828	86.7709	67.3828	85.0306	67.3828	86.783	67.3828	84.9508	67.3828	86.7556	67.3828	84.8948	67.3828	86.69	67.3828	84.8632	67.3828	86.5902	67.3828	84.8559	67.3828	86.4623	67.3828	84.8723	67.3828	86.314	67.3828	84.9109	67.3828	86.1533	67.3828	84.9702	67.3828	85.9879	67.3828	85.0485	67.3828	85.824	67.3828	85.1439	67.3828	85.666	67.3828	85.2547	67.3828	85.5172	67.3828	85.3797
68.8477	86.0877	68.8477	85.9173	68.8477	86.2524	68.8477	85.7468	68.8477	86.4055	68.8477	85.5814	68.8477	86.5407	68.8477	85.4256	68.8477	86.6518	68.8477	85.2836	68.8477	86.7331	68.8477	85.159	68.8477	86.7796	68.8477	85.0547	68.8477	86.7882	68.8477	84.9728	68.8477	86.7578	68.8477	84.9148	68.8477	86.6899	68.8477	84.8815	68.8477	86.5886	68.8477	84.8727	68.8477	86.4603	68.8477	84.8877	68.8477	86.3124	68.8477	84.9252	68.8477	86.153	68.8477	84.9836	68.8477	85.9893	68.8477	85.0611	68.8477	85.8274	68.8477	85.1555	68.8477	85.6716	68.8477	85.2653	68.8477	85.5248	68.8477	85.3889
