"SPL Horizontal"																																																																							
"On-Axis"		"10°"		"-10°"		"20°"		"-20°"		"30°"		"-30°"		"40°"		"-40°"		"50°"		"-50°"		"60°"		"-60°"		"70°"		"-70°"		"80°"		"-80°"		"90°"		"-90°"		"100°"		"-100°"		"110°"		"-110°"		"120°"		"-120°"		"130°"		"-130°"		"140°"		"-140°"		"150°"		"-150°"		"160°"		"-160°"		"170°"		"-170°"		"180°"	
"Frequency [Hz]"	"Sound Pessure Level [dB]  / [2.83V 1m] "	"Frequency [Hz]"	"Sound Pessure Level [dB]  / [2.83V 1m] "	"Frequency [Hz]"	"Sound Pessure Level [dB]  / [2.83V 1m] "	"Frequency [Hz]"	"Sound Pessure Level [dB]  / [2.83V 1m] "	"Frequency [Hz]"	"Sound Pessure Level [dB]  / [2.83V 1m] "	"Frequency [Hz]"	"Sound Pessure Level [dB]  / [2.83V 1m] "	"Frequency [Hz]"	"Sound Pessure Level [dB]  / [2.83V 1m] "	"Frequency [Hz]"	"Sound Pessure Level [dB]  / [2.83V 1m] "	"Frequency [Hz]"	"Sound Pessure Level [dB]  / [2.83V 1m] "	"Frequency [Hz]"	"Sound Pessure Level [dB]  / [2.83V 1m] "	"Frequency [Hz]"	"Sound Pessure Level [dB]  / [2.83V 1m] "	"Frequency [Hz]"	"Sound Pessure Level [dB]  / [2.83V 1m] "	"Frequency [Hz]"	"Sound Pessure Level [dB]  / [2.83V 1m] "	"Frequency [Hz]"	"Sound Pessure Level [dB]  / [2.83V 1m] "	"Frequency [Hz]"	"Sound Pessure Level [dB]  / [2.83V 1m] "	"Frequency [Hz]"	"Sound Pessure Level [dB]  / [2.83V 1m] "	"Frequency [Hz]"	"Sound Pessure Level [dB]  / [2.83V 1m] "	"Frequency [Hz]"	"Sound Pessure Level [dB]  / [2.83V 1m] "	"Frequency [Hz]"	"Sound Pessure Level [dB]  / [2.83V 1m] "	"Frequency [Hz]"	"Sound Pessure Level [dB]  / [2.83V 1m] "	"Frequency [Hz]"	"Sound Pessure Level [dB]  / [2.83V 1m] "	"Frequency [Hz]"	"Sound Pessure Level [dB]  / [2.83V 1m] "	"Frequency [Hz]"	"Sound Pessure Level [dB]  / [2.83V 1m] "	"Frequency [Hz]"	"Sound Pessure Level [dB]  / [2.83V 1m] "	"Frequency [Hz]"	"Sound Pessure Level [dB]  / [2.83V 1m] "	"Frequency [Hz]"	"Sound Pessure Level [dB]  / [2.83V 1m] "	"Frequency [Hz]"	"Sound Pessure Level [dB]  / [2.83V 1m] "	"Frequency [Hz]"	"Sound Pessure Level [dB]  / [2.83V 1m] "	"Frequency [Hz]"	"Sound Pessure Level [dB]  / [2.83V 1m] "	"Frequency [Hz]"	"Sound Pessure Level [dB]  / [2.83V 1m] "	"Frequency [Hz]"	"Sound Pessure Level [dB]  / [2.83V 1m] "	"Frequency [Hz]"	"Sound Pessure Level [dB]  / [2.83V 1m] "	"Frequency [Hz]"	"Sound Pessure Level [dB]  / [2.83V 1m] "	"Frequency [Hz]"	"Sound Pessure Level [dB]  / [2.83V 1m] "	"Frequency [Hz]"	"Sound Pessure Level [dB]  / [2.83V 1m] "	"Frequency [Hz]"	"Sound Pessure Level [dB]  / [2.83V 1m] "
20.5078	60.7834	20.5078	60.7354	20.5078	60.743	20.5078	60.6055	20.5078	60.6126	20.5078	60.4063	20.5078	60.3948	20.5078	60.1603	20.5078	60.0988	20.5078	59.9054	20.5078	59.7453	20.5078	59.6993	20.5078	59.3736	20.5078	59.6183	20.5078	59.0517	20.5078	59.74	20.5078	58.8783	20.5078	60.1103	20.5078	58.9621	20.5078	60.7151	20.5078	59.3691	20.5078	61.483	20.5078	60.075	20.5078	62.3171	20.5078	60.975	20.5078	63.1268	20.5078	61.9401	20.5078	63.8413	20.5078	62.8617	20.5078	64.4109	20.5078	63.6643	20.5078	64.8022	20.5078	64.3005	20.5078	64.9941	20.5078	64.7424	20.5078	64.9752
21.9727	61.2508	21.9727	61.2009	21.9727	61.1967	21.9727	61.0514	21.9727	61.0382	21.9727	60.8125	21.9727	60.7792	21.9727	60.5041	21.9727	60.4305	21.9727	60.1635	21.9727	60.0156	21.9727	59.8536	21.9727	59.5812	21.9727	59.6659	21.9727	59.2078	21.9727	59.7046	21.9727	59.0127	21.9727	60.0409	21.9727	59.1184	21.9727	60.6661	21.9727	59.5856	21.9727	61.4918	21.9727	60.3639	21.9727	62.3972	21.9727	61.3229	21.9727	63.2748	21.9727	62.3231	21.9727	64.0467	21.9727	63.2578	21.9727	64.6621	21.9727	64.0579	21.9727	65.0899	21.9727	64.682	21.9727	65.3114	21.9727	65.1062	21.9727	65.3176
23.4375	61.5613	23.4375	61.4826	23.4375	61.5314	23.4375	61.3011	23.4375	61.3921	23.4375	61.0296	23.4375	61.1474	23.4375	60.6944	23.4375	60.8085	23.4375	60.3436	23.4375	60.4009	23.4375	60.0566	23.4375	59.9744	23.4375	59.9425	23.4375	59.6163	23.4375	60.1089	23.4375	59.4517	23.4375	60.6034	23.4375	59.6081	23.4375	61.3762	23.4375	60.1399	23.4375	62.3098	23.4375	60.9831	23.4375	63.2782	23.4375	61.997	23.4375	64.183	23.4375	63.0398	23.4375	64.9585	23.4375	64.0072	23.4375	65.5639	23.4375	64.8339	23.4375	65.9745	23.4375	65.4813	23.4375	66.1757	23.4375	65.9274	23.4375	66.1604
24.9023	62.4083	24.9023	62.3568	24.9023	62.3681	24.9023	62.2202	24.9023	62.2365	24.9023	62.0142	24.9023	62.021	24.9023	61.7683	24.9023	61.7395	24.9023	61.5321	24.9023	61.4256	24.9023	61.3796	24.9023	61.1369	24.9023	61.4006	24.9023	60.9579	24.9023	61.6717	24.9023	60.9887	24.9023	62.2153	24.9023	61.3065	24.9023	62.9827	24.9023	61.92	24.9023	63.8781	24.9023	62.76	24.9023	64.7996	24.9023	63.717	24.9023	65.6636	24.9023	64.685	24.9023	66.4099	24.9023	65.5826	24.9023	66.998	24.9023	66.3537	24.9023	67.4012	24.9023	66.9609	24.9023	67.6033	24.9023	67.38	24.9023	67.5964
26.3672	63.9313	26.3672	63.8968	26.3672	63.8971	26.3672	63.8006	26.3672	63.7944	26.3672	63.6588	26.3672	63.631	26.3672	63.4989	26.3672	63.4244	26.3672	63.3634	26.3672	63.2048	26.3672	63.3092	26.3672	63.0197	26.3672	63.3995	26.3672	62.9326	26.3672	63.6841	26.3672	63.0135	26.3672	64.176	26.3672	63.3148	26.3672	64.8419	26.3672	63.8452	26.3672	65.6146	26.3672	64.5612	26.3672	66.4168	26.3672	65.3861	26.3672	67.1784	26.3672	66.2365	26.3672	67.844	26.3672	67.0403	26.3672	68.3725	26.3672	67.7424	26.3672	68.7356	26.3672	68.303	26.3672	68.915	26.3672	68.6951	26.3672	68.9017
27.832	65.0751	27.832	65.0443	27.832	65.0467	27.832	64.9607	27.832	64.9599	27.832	64.8384	27.832	64.822	27.832	64.7017	27.832	64.6491	27.832	64.5874	27.832	64.468	27.832	64.5443	27.832	64.3187	27.832	64.6264	27.832	64.2542	27.832	64.8779	27.832	64.3316	27.832	65.3141	27.832	64.5957	27.832	65.9115	27.832	65.0583	27.832	66.6149	27.832	65.69	27.832	67.3555	27.832	66.4296	27.832	68.0671	27.832	67.2048	27.832	68.6947	27.832	67.9483	27.832	69.1966	27.832	68.6052	27.832	69.543	27.832	69.1341	27.832	69.7148	27.832	69.506	27.832	69.7026
29.2969	66.1931	29.2969	66.1653	29.2969	66.1705	29.2969	66.0928	29.2969	66.0982	29.2969	65.9883	29.2969	65.983	29.2969	65.8732	29.2969	65.839	29.2969	65.7791	29.2969	65.6896	29.2969	65.7473	29.2969	65.5688	29.2969	65.8233	29.2969	65.5203	29.2969	66.0451	29.2969	65.5916	29.2969	66.4287	29.2969	65.8212	29.2969	66.9584	29.2969	66.2227	29.2969	67.59	29.2969	66.7767	29.2969	68.2643	29.2969	67.4352	29.2969	68.9203	29.2969	68.1363	29.2969	69.5049	29.2969	68.8179	29.2969	69.9761	29.2969	69.4268	29.2969	70.3032	29.2969	69.9211	29.2969	70.4662	29.2969	70.2704	29.2969	70.4553
30.7617	67.0723	30.7617	67.0567	30.7617	67.0484	30.7617	67.0071	30.7617	66.9856	30.7617	66.9354	30.7617	66.8902	30.7617	66.8611	30.7617	66.7753	30.7617	66.8116	30.7617	66.662	30.7617	66.8213	30.7617	66.5801	30.7617	66.9266	30.7617	66.5664	30.7617	67.1567	30.7617	66.6597	30.7617	67.5234	30.7617	66.8905	30.7617	68.0136	30.7617	67.2697	30.7617	68.5914	30.7617	67.7816	30.7617	69.2072	30.7617	68.3871	30.7617	69.8078	30.7617	69.0334	30.7617	70.345	30.7617	69.6658	30.7617	70.7788	30.7617	70.2349	30.7617	71.0793	30.7617	70.7004	30.7617	71.2266	30.7617	71.0324	30.7617	71.211
32.2266	68.17	32.2266	68.1581	32.2266	68.1487	32.2266	68.1173	32.2266	68.0948	32.2266	68.0575	32.2266	68.0141	32.2266	67.9951	32.2266	67.9183	32.2266	67.9526	32.2266	67.8254	32.2266	67.9589	32.2266	67.7604	32.2266	68.0446	32.2266	67.7537	32.2266	68.2364	32.2266	67.8374	32.2266	68.5475	32.2266	68.0375	32.2266	68.9714	32.2266	68.3654	32.2266	69.4811	32.2266	68.8111	32.2266	70.0346	32.2266	69.3446	32.2266	70.5837	32.2266	69.9216	32.2266	71.0817	32.2266	70.493	32.2266	71.4887	32.2266	71.0121	32.2266	71.7741	32.2266	71.4395	32.2266	71.917	32.2266	71.7447	32.2266	71.9073
33.6914	69.0047	33.6914	68.9959	33.6914	68.9866	33.6914	68.9641	33.6914	68.9423	33.6914	68.9181	33.6914	68.8771	33.6914	68.8723	33.6914	68.8013	33.6914	68.8465	33.6914	68.7306	33.6914	68.8654	33.6914	68.6863	33.6914	68.9552	33.6914	68.6941	33.6914	69.1386	33.6914	68.7807	33.6914	69.4273	33.6914	68.9681	33.6914	69.8167	33.6914	69.2667	33.6914	70.284	33.6914	69.6697	33.6914	70.7928	33.6914	70.1531	33.6914	71.2999	33.6914	70.6795	33.6914	71.7618	33.6914	71.2051	33.6914	72.1407	33.6914	71.6866	33.6914	72.4065	33.6914	72.086	33.6914	72.5389	33.6914	72.3733	33.6914	72.5278
35.1563	69.8885	35.1563	69.8811	35.1563	69.875	35.1563	69.8563	35.1563	69.8412	35.1563	69.8218	35.1563	69.7917	35.1563	69.7902	35.1563	69.7356	35.1563	69.7786	35.1563	69.6863	35.1563	69.8078	35.1563	69.6618	35.1563	69.9002	35.1563	69.6836	35.1563	70.0748	35.1563	69.7735	35.1563	70.342	35.1563	69.9501	35.1563	70.6983	35.1563	70.2224	35.1563	71.1254	35.1563	70.5863	35.1563	71.5919	35.1563	71.0225	35.1563	72.0591	35.1563	71.4998	35.1563	72.4873	35.1563	71.9798	35.1563	72.8402	35.1563	72.4227	35.1563	73.0888	35.1563	72.7924	35.1563	73.2132	35.1563	73.0594	35.1563	73.2033
36.6211	70.7815	36.6211	70.7809	36.6211	70.7676	36.6211	70.7686	36.6211	70.7397	36.6211	70.7513	36.6211	70.7017	36.6211	70.7393	36.6211	70.6613	36.6211	70.7465	36.6211	70.6297	36.6211	70.7899	36.6211	70.6217	36.6211	70.8871	36.6211	70.6545	36.6211	71.0534	36.6211	70.7461	36.6211	71.2975	36.6211	70.9113	36.6211	71.6173	36.6211	71.1583	36.6211	71.9986	36.6211	71.4846	36.6211	72.4157	36.6211	71.8755	36.6211	72.8354	36.6211	72.305	36.6211	73.2221	36.6211	72.74	36.6211	73.5422	36.6211	73.1447	36.6211	73.768	36.6211	73.4851	36.6211	73.8799	36.6211	73.7329	36.6211	73.8681
38.0859	71.6342	38.0859	71.6359	38.0859	71.6219	38.0859	71.6293	38.0859	71.5994	38.0859	71.6199	38.0859	71.5699	38.0859	71.6163	38.0859	71.5398	38.0859	71.63	38.0859	71.5183	38.0859	71.6748	38.0859	71.5177	38.0859	71.7656	38.0859	71.5522	38.0859	71.9153	38.0859	71.6368	38.0859	72.132	38.0859	71.7845	38.0859	72.4152	38.0859	72.003	38.0859	72.7541	38.0859	72.2917	38.0859	73.1275	38.0859	72.6393	38.0859	73.5066	38.0859	73.0246	38.0859	73.8588	38.0859	73.4182	38.0859	74.1527	38.0859	73.7874	38.0859	74.3611	38.0859	74.1002	38.0859	74.465	38.0859	74.3291	38.0859	74.4542
39.5508	72.4241	39.5508	72.428	39.5508	72.414	39.5508	72.4279	39.5508	72.3982	39.5508	72.4284	39.5508	72.3795	39.5508	72.4365	39.5508	72.363	39.5508	72.4618	39.5508	72.3564	39.5508	72.5158	39.5508	72.3697	39.5508	72.6104	39.5508	72.4146	39.5508	72.7565	39.5508	72.5032	39.5508	72.9606	39.5508	72.6461	39.5508	73.2227	39.5508	72.85	39.5508	73.5338	39.5508	73.1148	39.5508	73.8759	39.5508	73.4314	39.5508	74.2237	39.5508	73.7822	39.5508	74.5478	39.5508	74.1418	39.5508	74.819	39.5508	74.4807	39.5508	75.0119	39.5508	74.7692	39.5508	75.1079	39.5508	74.9812	39.5508	75.0975
41.0156	73.2831	41.0156	73.2887	41.0156	73.2734	41.0156	73.2918	41.0156	73.2598	41.0156	73.2959	41.0156	73.2448	41.0156	73.3066	41.0156	73.2323	41.0156	73.3315	41.0156	73.2284	41.0156	73.3797	41.0156	73.2412	41.0156	73.4611	41.0156	73.2801	41.0156	73.5851	41.0156	73.355	41.0156	73.758	41.0156	73.4752	41.0156	73.981	41.0156	73.6473	41.0156	74.2481	41.0156	73.8724	41.0156	74.5449	41.0156	74.1446	41.0156	74.85	41.0156	74.4498	41.0156	75.1372	41.0156	74.7667	41.0156	75.3794	41.0156	75.0688	41.0156	75.5524	41.0156	75.3285	41.0156	75.6384	41.0156	75.5211	41.0156	75.6278
42.4805	74.0515	42.4805	74.0631	42.4805	74.036	42.4805	74.0722	42.4805	74.0171	42.4805	74.0822	42.4805	73.997	42.4805	74.0982	42.4805	73.9798	42.4805	74.1269	42.4805	73.9715	42.4805	74.1767	42.4805	73.9796	42.4805	74.2564	42.4805	74.0133	42.4805	74.3741	42.4805	74.082	42.4805	74.5353	42.4805	74.1942	42.4805	74.7411	42.4805	74.3559	42.4805	74.986	42.4805	74.5678	42.4805	75.2576	42.4805	74.8244	42.4805	75.5366	42.4805	75.1126	42.4805	75.7993	42.4805	75.4124	42.4805	76.0207	42.4805	75.6993	42.4805	76.1778	42.4805	75.9475	42.4805	76.2535	42.4805	76.1333	42.4805	76.2385
43.9453	74.6715	43.9453	74.6822	43.9453	74.6593	43.9453	74.6924	43.9453	74.6458	43.9453	74.7046	43.9453	74.6328	43.9453	74.7229	43.9453	74.6236	43.9453	74.7529	43.9453	74.6228	43.9453	74.8011	43.9453	74.6366	43.9453	74.8748	43.9453	74.672	43.9453	74.9808	43.9453	74.7368	43.9453	75.1241	43.9453	74.838	43.9453	75.3061	43.9453	74.9807	43.9453	75.5228	43.9453	75.1665	43.9453	75.7641	43.9453	75.3912	43.9453	76.0136	43.9453	75.6446	43.9453	76.2501	43.9453	75.91	43.9453	76.4507	43.9453	76.1657	43.9453	76.594	43.9453	76.3884	43.9453	76.6636	43.9453	76.5557	43.9453	76.6507
45.4102	75.3021	45.4102	75.3163	45.4102	75.2877	45.4102	75.3309	45.4102	75.2735	45.4102	75.3481	45.4102	75.261	45.4102	75.3709	45.4102	75.253	45.4102	75.4039	45.4102	75.2536	45.4102	75.4524	45.4102	75.2681	45.4102	75.5223	45.4102	75.3024	45.4102	75.6196	45.4102	75.3633	45.4102	75.7487	45.4102	75.457	45.4102	75.9112	45.4102	75.588	45.4102	76.1045	45.4102	75.7577	45.4102	76.3201	45.4102	75.963	45.4102	76.5442	45.4102	76.1946	45.4102	76.7578	45.4102	76.4378	45.4102	76.9399	45.4102	76.6729	45.4102	77.0704	45.4102	76.8782	45.4102	77.1337	45.4102	77.033	45.4102	77.1211
46.875	75.8769	46.875	75.8911	46.875	75.8654	46.875	75.9083	46.875	75.8569	46.875	75.9301	46.875	75.8528	46.875	75.9589	46.875	75.8555	46.875	75.9981	46.875	75.868	46.875	76.052	46.875	75.8946	46.875	76.1253	46.875	75.9399	46.875	76.2228	46.875	76.009	46.875	76.3482	46.875	76.1066	46.875	76.5028	46.875	76.2359	46.875	76.6843	46.875	76.398	46.875	76.8857	46.875	76.5896	46.875	77.0945	46.875	76.8029	46.875	77.2939	46.875	77.0251	46.875	77.4647	46.875	77.2388	46.875	77.5883	46.875	77.4247	46.875	77.65	46.875	77.564	46.875	77.6419
48.3398	76.4639	48.3398	76.4778	48.3398	76.456	48.3398	76.4982	48.3398	76.4545	48.3398	76.5259	48.3398	76.4604	48.3398	76.5624	48.3398	76.4749	48.3398	76.61	48.3398	76.5003	48.3398	76.6715	48.3398	76.5391	48.3398	76.7501	48.3398	76.5944	48.3398	76.8491	48.3398	76.6695	48.3398	76.9709	48.3398	76.7677	48.3398	77.1164	48.3398	76.8912	48.3398	77.2834	48.3398	77.0406	48.3398	77.4659	48.3398	77.2134	48.3398	77.6537	48.3398	77.4034	48.3398	77.8324	48.3398	77.6001	48.3398	77.9854	48.3398	77.7891	48.3398	78.0963	48.3398	77.9535	48.3398	78.152	48.3398	78.0767	48.3398	78.1454
51.2695	77.6442	51.2695	77.6611	51.2695	77.6348	51.2695	77.6854	51.2695	77.6333	51.2695	77.7173	51.2695	77.6399	51.2695	77.7568	51.2695	77.6552	51.2695	77.8046	51.2695	77.68	51.2695	77.8615	51.2695	77.7151	51.2695	77.9288	51.2695	77.7619	51.2695	78.0081	51.2695	77.8221	51.2695	78.1008	51.2695	77.8975	51.2695	78.2075	51.2695	77.9898	51.2695	78.3277	51.2695	78.0996	51.2695	78.458	51.2695	78.2262	51.2695	78.5921	51.2695	78.3662	51.2695	78.7202	51.2695	78.5128	51.2695	78.8301	51.2695	78.6559	51.2695	78.9091	51.2695	78.7827	51.2695	78.9466	51.2695	78.8801	51.2695	78.9369
52.7344	78.225	52.7344	78.2437	52.7344	78.2146	52.7344	78.2703	52.7344	78.2128	52.7344	78.3046	52.7344	78.2197	52.7344	78.3461	52.7344	78.2355	52.7344	78.3948	52.7344	78.2603	52.7344	78.4507	52.7344	78.2946	52.7344	78.5144	52.7344	78.339	52.7344	78.5865	52.7344	78.3944	52.7344	78.668	52.7344	78.4619	52.7344	78.7597	52.7344	78.5428	52.7344	78.8611	52.7344	78.6379	52.7344	78.9701	52.7344	78.7467	52.7344	79.082	52.7344	78.8668	52.7344	79.1888	52.7344	78.993	52.7344	79.2804	52.7344	79.1169	52.7344	79.3458	52.7344	79.2276	52.7344	79.3757	52.7344	79.3135	52.7344	79.3648
54.1992	78.7114	54.1992	78.7306	54.1992	78.7016	54.1992	78.7589	54.1992	78.7014	54.1992	78.7954	54.1992	78.711	54.1992	78.8394	54.1992	78.7301	54.1992	78.8903	54.1992	78.7584	54.1992	78.9474	54.1992	78.7957	54.1992	79.0105	54.1992	78.8419	54.1992	79.0798	54.1992	78.8974	54.1992	79.1557	54.1992	78.9624	54.1992	79.2387	54.1992	79.0379	54.1992	79.3287	54.1992	79.1242	54.1992	79.424	54.1992	79.2212	54.1992	79.5211	54.1992	79.327	54.1992	79.6135	54.1992	79.4375	54.1992	79.6926	54.1992	79.5459	54.1992	79.749	54.1992	79.643	54.1992	79.7744	54.1992	79.7187	54.1992	79.7642
55.6641	79.2596	55.6641	79.28	55.6641	79.2481	55.6641	79.3086	55.6641	79.2457	55.6641	79.3444	55.6641	79.2525	55.6641	79.3862	55.6641	79.2681	55.6641	79.4329	55.6641	79.2919	55.6641	79.4834	55.6641	79.3233	55.6641	79.5371	55.6641	79.362	55.6641	79.5938	55.6641	79.4076	55.6641	79.6537	55.6641	79.4603	55.6641	79.7175	55.6641	79.5207	55.6641	79.7855	55.6641	79.5892	55.6641	79.8573	55.6641	79.6662	55.6641	79.9306	55.6641	79.7506	55.6641	80.0008	55.6641	79.8396	55.6641	80.0612	55.6641	79.9279	55.6641	80.1039	55.6641	80.0081	55.6641	80.1219	55.6641	80.0716	55.6641	80.1111
58.5938	80.137	58.5938	80.1532	58.5938	80.1313	58.5938	80.1792	58.5938	80.1361	58.5938	80.2138	58.5938	80.1509	58.5938	80.2556	58.5938	80.1747	58.5938	80.3027	58.5938	80.2062	58.5938	80.3533	58.5938	80.244	58.5938	80.4059	58.5938	80.2867	58.5938	80.4593	58.5938	80.3329	58.5938	80.5129	58.5938	80.382	58.5938	80.5667	58.5938	80.4338	58.5938	80.6209	58.5938	80.4885	58.5938	80.6755	58.5938	80.5463	58.5938	80.7297	58.5938	80.6074	58.5938	80.7808	58.5938	80.6704	58.5938	80.8246	58.5938	80.7325	58.5938	80.8556	58.5938	80.7889	58.5938	80.869	58.5938	80.8338	58.5938	80.8616
60.0586	80.497	60.0586	80.5148	60.0586	80.4907	60.0586	80.5434	60.0586	80.4959	60.0586	80.5814	60.0586	80.512	60.0586	80.6269	60.0586	80.5379	60.0586	80.6776	60.0586	80.5718	60.0586	80.7312	60.0586	80.6119	60.0586	80.7856	60.0586	80.6562	60.0586	80.839	60.0586	80.7031	60.0586	80.8903	60.0586	80.7514	60.0586	80.9391	60.0586	80.8004	60.0586	80.9857	60.0586	80.85	60.0586	81.0303	60.0586	80.9006	60.0586	81.0727	60.0586	80.9524	60.0586	81.1117	60.0586	81.0049	60.0586	81.1442	60.0586	81.0564	60.0586	81.1665	60.0586	81.1035	60.0586	81.1745	60.0586	81.1415	60.0586	81.1661
62.9883	81.2775	62.9883	81.295	62.9883	81.2725	62.9883	81.3239	62.9883	81.2799	62.9883	81.3626	62.9883	81.2989	62.9883	81.4086	62.9883	81.3279	62.9883	81.4593	62.9883	81.3647	62.9883	81.5114	62.9883	81.4069	62.9883	81.5622	62.9883	81.4516	62.9883	81.609	62.9883	81.4964	62.9883	81.6502	62.9883	81.5391	62.9883	81.6849	62.9883	81.5784	62.9883	81.7134	62.9883	81.6137	62.9883	81.7368	62.9883	81.6455	62.9883	81.7561	62.9883	81.6746	62.9883	81.7721	62.9883	81.7021	62.9883	81.7847	62.9883	81.7282	62.9883	81.7923	62.9883	81.7523	62.9883	81.7934	62.9883	81.7725	62.9883	81.7867
64.4531	81.6818	64.4531	81.6983	64.4531	81.6781	64.4531	81.7268	64.4531	81.6872	64.4531	81.7654	64.4531	81.7082	64.4531	81.8115	64.4531	81.7394	64.4531	81.8621	64.4531	81.7783	64.4531	81.9139	64.4531	81.822	64.4531	81.9634	64.4531	81.8675	64.4531	82.008	64.4531	81.9119	64.4531	82.0455	64.4531	81.9527	64.4531	82.0749	64.4531	81.9882	64.4531	82.0964	64.4531	82.0177	64.4531	82.1112	64.4531	82.0415	64.4531	82.121	64.4531	82.0607	64.4531	82.1275	64.4531	82.077	64.4531	82.1316	64.4531	82.0916	64.4531	82.1332	64.4531	82.1051	64.4531	82.1316	64.4531	82.117	64.4531	82.1261
67.3828	82.3675	67.3828	82.3827	67.3828	82.3656	67.3828	82.4104	67.3828	82.3772	67.3828	82.4486	67.3828	82.4011	67.3828	82.4944	67.3828	82.4353	67.3828	82.5443	67.3828	82.477	67.3828	82.5945	67.3828	82.5227	67.3828	82.6411	67.3828	82.5689	67.3828	82.6806	67.3828	82.6119	67.3828	82.7105	67.3828	82.6485	67.3828	82.7292	67.3828	82.6765	67.3828	82.737	67.3828	82.6947	67.3828	82.7353	67.3828	82.7034	67.3828	82.7271	67.3828	82.7041	67.3828	82.7155	67.3828	82.6996	67.3828	82.7035	67.3828	82.6929	67.3828	82.6935	67.3828	82.6868	67.3828	82.6864	67.3828	82.6832	67.3828	82.683
68.8477	82.6665	68.8477	82.6815	68.8477	82.6651	68.8477	82.709	68.8477	82.6771	68.8477	82.747	68.8477	82.7014	68.8477	82.7924	68.8477	82.7357	68.8477	82.8417	68.8477	82.7771	68.8477	82.8906	68.8477	82.8221	68.8477	82.9352	68.8477	82.8666	68.8477	82.9719	68.8477	82.9071	68.8477	82.9977	68.8477	82.9402	68.8477	83.0113	68.8477	82.9636	68.8477	83.0126	68.8477	82.976	68.8477	83.0034	68.8477	82.9779	68.8477	82.9868	68.8477	82.9708	68.8477	82.9666	68.8477	82.9578	68.8477	82.9467	68.8477	82.9427	68.8477	82.9304	68.8477	82.9289	68.8477	82.9198	68.8477	82.9194	68.8477	82.9161
