"Early Reflections"											
"Floor Bounce"		"Ceiling Bounce"		"Front Wall Bounce"		"Side Wall Bounce"		"Rear Wall Bounce"		"Total Early Reflection"	
"Frequency [Hz]"	"Sound Pessure Level [dB]  / [2.83V 1m] "	"Frequency [Hz]"	"Sound Pessure Level [dB]  / [2.83V 1m] "	"Frequency [Hz]"	"Sound Pessure Level [dB]  / [2.83V 1m] "	"Frequency [Hz]"	"Sound Pessure Level [dB]  / [2.83V 1m] "	"Frequency [Hz]"	"Sound Pessure Level [dB]  / [2.83V 1m] "	"Frequency [Hz]"	"Sound Pessure Level [dB]  / [2.83V 1m] "
20.5078	65.4428	20.5078	63.7288	20.5078	64.7506	20.5078	64.986	20.5078	64.9367	20.5078	64.846
21.2402	58.8332	21.2402	57.2844	21.2402	57.8781	21.2402	58.7165	21.2402	60.041	21.2402	58.56
21.9727	57.1779	21.9727	57.4543	21.9727	57.0309	21.9727	57.4646	21.9727	58.6011	21.9727	57.4702
22.7051	64.401	22.7051	62.891	22.7051	63.7711	22.7051	63.8379	22.7051	63.8339	22.7051	63.7906
23.4375	59.6634	23.4375	55.64	23.4375	58.1516	23.4375	58.4647	23.4375	58.3425	23.4375	58.2855
24.1699	61.7283	24.1699	58.2014	24.1699	60.3463	24.1699	60.4921	24.1699	60.4534	24.1699	60.4079
25.6348	60.7957	25.6348	58.0782	25.6348	59.5449	25.6348	59.9312	25.6348	60.5295	25.6348	59.8411
26.3672	64.9303	26.3672	62.3705	26.3672	63.8764	26.3672	63.9578	26.3672	64.0482	26.3672	63.9188
27.0996	64.4953	27.0996	62.1673	27.0996	63.4885	27.0996	63.5864	27.0996	63.7302	27.0996	63.5541
27.832	65.2701	27.832	62.8369	27.832	64.2345	27.832	64.2556	27.832	64.2686	27.832	64.2436
29.2969	67.1305	29.2969	65.37	29.2969	66.2297	29.2969	66.4219	29.2969	66.8581	29.2969	66.4052
30.0293	70.7213	30.0293	68.8487	30.0293	69.8688	30.0293	69.9885	30.0293	70.1653	30.0293	69.9538
31.4941	71.5429	31.4941	69.9098	31.4941	70.7942	31.4941	70.8577	31.4941	70.9718	31.4941	70.8414
32.2266	72.601	32.2266	70.8307	32.2266	71.7937	32.2266	71.8771	32.2266	72.0331	32.2266	71.8568
33.6914	75.8304	33.6914	74.374	33.6914	75.1523	33.6914	75.2507	33.6914	75.4501	33.6914	75.2279
34.4238	76.612	34.4238	75.2712	34.4238	75.9777	34.4238	76.061	34.4238	76.2447	34.4238	76.0449
35.8887	78.7491	35.8887	77.3832	35.8887	78.1205	35.8887	78.1873	35.8887	78.3287	35.8887	78.1705
37.3535	81.0542	37.3535	79.7702	37.3535	80.4735	37.3535	80.519	37.3535	80.6117	37.3535	80.504
38.8184	82.9812	38.8184	81.7669	38.8184	82.431	38.8184	82.4576	38.8184	82.5218	38.8184	82.4484
39.5508	83.9682	39.5508	82.7632	39.5508	83.4253	39.5508	83.4435	39.5508	83.4875	39.5508	83.4354
41.0156	85.9	41.0156	84.4688	41.0156	85.2845	41.0156	85.2615	41.0156	85.2381	41.0156	85.2608
42.4805	88.2566	42.4805	87.0082	42.4805	87.7214	42.4805	87.7167	42.4805	87.7073	42.4805	87.7078
43.9453	90.23	43.9453	89.0198	43.9453	89.7123	43.9453	89.701	43.9453	89.6825	43.9453	89.6941
45.4102	92.005	45.4102	90.8218	45.4102	91.5042	45.4102	91.4794	45.4102	91.4402	45.4102	91.4757
47.6074	94.6758	47.6074	93.5559	47.6074	94.2046	47.6074	94.1737	47.6074	94.122	47.6074	94.1711
49.0723	96.3453	49.0723	95.2458	49.0723	95.8862	49.0723	95.8473	49.0723	95.7814	49.0723	95.8463
50.5371	97.8882	50.5371	96.8077	50.5371	97.44	50.5371	97.395	50.5371	97.3197	50.5371	97.3954
52.7344	99.9401	52.7344	98.8955	52.7344	99.5096	52.7344	99.4597	52.7344	99.3798	52.7344	99.4616
54.1992	101.11	54.1992	100.081	54.1992	100.688	54.1992	100.634	54.1992	100.548	54.1992	100.637
56.3965	102.535	56.3965	101.537	56.3965	102.128	56.3965	102.07	56.3965	101.982	56.3965	102.074
58.5938	103.58	58.5938	102.611	58.5938	103.187	58.5938	103.125	58.5938	103.036	58.5938	103.131
60.0586	104.034	60.0586	103.082	60.0586	103.65	60.0586	103.584	60.0586	103.491	60.0586	103.591
62.2559	104.483	62.2559	103.54	62.2559	104.106	62.2559	104.03	62.2559	103.921	62.2559	104.04
64.4531	104.665	64.4531	103.739	64.4531	104.296	64.4531	104.216	64.4531	104.105	64.4531	104.227
66.6504	104.624	66.6504	103.694	66.6504	104.256	66.6504	104.17	66.6504	104.053	66.6504	104.183
69.5801	104.483	69.5801	103.546	69.5801	104.118	69.5801	104.023	69.5801	103.895	69.5801	104.038
71.7773	104.339	71.7773	103.409	71.7773	103.979	71.7773	103.88	71.7773	103.747	71.7773	103.896
73.9746	104.119	73.9746	103.204	73.9746	103.765	73.9746	103.666	73.9746	103.541	73.9746	103.683
76.9043	103.89	76.9043	102.982	76.9043	103.541	76.9043	103.436	76.9043	103.305	76.9043	103.455
79.834	103.708	79.834	102.788	79.834	103.356	79.834	103.246	79.834	103.118	79.834	103.268
82.7637	103.647	82.7637	102.709	82.7637	103.295	82.7637	103.17	82.7637	103.022	82.7637	103.195
85.6934	103.606	85.6934	102.661	85.6934	103.257	85.6934	103.116	85.6934	102.936	85.6934	103.144
88.623	103.637	88.623	102.678	88.623	103.286	88.623	103.14	88.623	102.946	88.623	103.168
91.5527	103.656	91.5527	102.699	91.5527	103.296	91.5527	103.176	91.5527	103.035	91.5527	103.199
94.4824	103.456	94.4824	102.437	94.4824	103.068	94.4824	102.959	94.4824	102.887	94.4824	102.984
98.1445	103.799	98.1445	102.788	98.1445	103.443	98.1445	103.27	98.1445	103.076	98.1445	103.308
101.807	103.901	101.807	102.877	101.807	103.541	101.807	103.373	101.807	103.188	101.807	103.409
105.469	104.017	105.469	102.99	105.469	103.659	105.469	103.486	105.469	103.306	105.469	103.524
109.131	104.181	109.131	103.165	109.131	103.832	109.131	103.653	109.131	103.479	109.131	103.694
112.793	104.352	112.793	103.359	112.793	104.018	112.793	103.823	112.793	103.626	112.793	103.868
116.455	104.486	116.455	103.495	116.455	104.15	116.455	103.96	116.455	103.787	116.455	104.006
120.85	104.699	120.85	103.722	120.85	104.382	120.85	104.158	120.85	103.944	120.85	104.214
125.244	104.888	125.244	103.902	125.244	104.574	125.244	104.328	125.244	104.081	125.244	104.39
129.639	105.047	129.639	104.039	129.639	104.724	129.639	104.487	129.639	104.253	129.639	104.546
134.033	105.022	134.033	104.039	134.033	104.699	134.033	104.484	134.033	104.301	134.033	104.54
138.428	105.159	138.428	104.122	138.428	104.817	138.428	104.595	138.428	104.457	138.428	104.658
143.555	105.394	143.555	104.32	143.555	105.061	143.555	104.776	143.555	104.586	143.555	104.86
148.682	105.526	148.682	104.401	148.682	105.185	148.682	104.874	148.682	104.613	148.682	104.96
153.809	105.602	153.809	104.51	153.809	105.282	153.809	104.971	153.809	104.729	153.809	105.058
159.668	105.734	159.668	104.656	159.668	105.427	159.668	105.09	159.668	104.847	159.668	105.188
164.795	105.956	164.795	104.847	164.795	105.657	164.795	105.274	164.795	104.933	164.795	105.381
170.654	105.991	170.654	104.894	170.654	105.689	170.654	105.318	170.654	104.974	170.654	105.42
176.514	105.952	176.514	104.826	176.514	105.632	176.514	105.268	176.514	104.991	176.514	105.375
183.105	105.974	183.105	104.769	183.105	105.641	183.105	105.248	183.105	104.976	183.105	105.366
189.697	106.065	189.697	104.953	189.697	105.78	189.697	105.361	189.697	105.073	189.697	105.488
196.289	106.131	196.289	104.963	196.289	105.838	196.289	105.376	196.289	105.079	196.289	105.522
202.881	106.2	202.881	105.056	202.881	105.939	202.881	105.435	202.881	105.061	202.881	105.589
210.205	106.235	210.205	105.097	210.205	105.986	210.205	105.455	210.205	105.057	210.205	105.619
217.529	106.245	217.529	105.141	217.529	106.014	217.529	105.474	217.529	105.047	217.529	105.639
225.586	106.334	225.586	105.202	225.586	106.116	225.586	105.536	225.586	105.077	225.586	105.713
232.91	106.525	232.91	105.335	232.91	106.293	232.91	105.675	232.91	105.099	232.91	105.858
241.699	106.378	241.699	105.178	241.699	106.118	241.699	105.524	241.699	104.93	241.699	105.698
249.756	106.486	249.756	105.202	249.756	106.219	249.756	105.587	249.756	104.989	249.756	105.775
258.545	106.398	258.545	105.213	258.545	106.15	258.545	105.578	258.545	105.182	258.545	105.759
268.066	106.194	268.066	104.92	268.066	105.96	268.066	105.304	268.066	104.848	268.066	105.511
277.588	106.076	277.588	105.052	277.588	105.962	277.588	105.306	277.588	105.073	277.588	105.533
287.109	105.971	287.109	104.961	287.109	105.879	287.109	105.064	287.109	104.816	287.109	105.371
297.363	106.096	297.363	104.846	297.363	105.914	297.363	104.973	297.363	104.539	297.363	105.327
307.617	106.016	307.617	104.532	307.617	105.714	307.617	104.752	307.617	104.334	307.617	105.124
318.604	106.083	318.604	104.411	318.604	105.794	318.604	104.704	318.604	103.999	318.604	105.099
329.59	106.174	329.59	104.314	329.59	105.839	329.59	104.782	329.59	103.929	329.59	105.138
341.309	106.014	341.309	104.037	341.309	105.687	341.309	104.506	341.309	103.732	341.309	104.925
353.76	106.129	353.76	104.152	353.76	105.874	353.76	104.635	353.76	103.558	353.76	105.044
366.211	105.983	366.211	104.169	366.211	105.791	366.211	104.596	366.211	103.547	366.211	104.983
378.662	106.229	378.662	104.059	378.662	105.863	378.662	104.509	378.662	103.48	378.662	104.997
392.578	106.122	392.578	103.899	392.578	105.73	392.578	104.382	392.578	103.099	392.578	104.848
405.762	106.189	405.762	103.859	405.762	105.824	405.762	104.416	405.762	103.105	405.762	104.898
420.41	106.168	420.41	103.789	420.41	105.796	420.41	104.359	420.41	102.854	420.41	104.841
435.059	105.829	435.059	103.446	435.059	105.538	435.059	104.091	435.059	102.724	435.059	104.568
450.439	105.804	450.439	103.345	450.439	105.529	450.439	103.911	450.439	102.27	450.439	104.458
466.553	105.735	466.553	103.188	466.553	105.479	466.553	103.796	466.553	102.065	466.553	104.363
482.666	105.622	482.666	103.03	482.666	105.431	482.666	103.903	482.666	101.844	482.666	104.337
500.244	105.677	500.244	103.091	500.244	105.57	500.244	103.894	500.244	101.753	500.244	104.39
517.822	104.918	517.822	103.056	517.822	105.135	517.822	103.913	517.822	101.747	517.822	104.131
536.133	104.848	536.133	103.333	536.133	105.173	536.133	103.782	536.133	101.607	536.133	104.104
554.443	105.334	554.443	103.703	554.443	105.306	554.443	104.154	554.443	101.961	554.443	104.41
574.219	105.422	574.219	103.306	574.219	104.985	574.219	103.588	574.219	101.838	574.219	104.069
594.727	105.661	594.727	103.493	594.727	105.728	594.727	104.181	594.727	101.678	594.727	104.574
615.234	105.808	615.234	103.678	615.234	105.88	615.234	104.562	615.234	102.039	615.234	104.822
637.207	105.975	637.207	104.097	637.207	106.068	637.207	104.783	637.207	102.29	637.207	105.044
659.912	105.924	659.912	104.129	659.912	105.912	659.912	104.78	659.912	102.306	659.912	104.987
683.35	106.054	683.35	103.658	683.35	106.011	683.35	104.937	683.35	102.561	683.35	105.071
706.787	105.244	706.787	103.316	706.787	105.325	706.787	104.708	706.787	102.926	706.787	104.646
731.689	105.154	731.689	103.097	731.689	105.232	731.689	104.285	731.689	102.597	731.689	104.398
758.057	105.65	758.057	103.378	758.057	105.714	758.057	104.48	758.057	102.603	758.057	104.724
784.424	105.285	784.424	103.587	784.424	105.46	784.424	104.14	784.424	101.864	784.424	104.432
812.256	105.211	812.256	103.984	812.256	105.139	812.256	104.243	812.256	102.049	812.256	104.405
840.82	104.917	840.82	103.855	840.82	104.723	840.82	103.767	840.82	102.059	840.82	104.045
870.85	105.068	870.85	102.92	870.85	104.99	870.85	103.698	870.85	102.595	870.85	104.077
901.611	104.809	901.611	102.782	901.611	104.808	901.611	103.479	901.611	102.453	901.611	103.878
933.105	105.354	933.105	102.277	933.105	105.381	933.105	103.45	933.105	102.804	933.105	104.135
966.064	105.325	966.064	101.685	966.064	105.363	966.064	102.629	966.064	102.242	966.064	103.778
999.756	105.456	999.756	101.707	999.756	105.89	999.756	102.414	999.756	101.19	999.756	103.88
1,034.91	104.402	1,034.91	101.458	1,034.91	105.491	1,034.91	102.55	1,034.91	99.6195	1,034.91	103.484
1,071.53	104.282	1,071.53	102.502	1,071.53	105.074	1,071.53	102.273	1,071.53	99.0527	1,071.53	103.268
1,109.62	103.959	1,109.62	102.86	1,109.62	104.812	1,109.62	101.866	1,109.62	98.6329	1,109.62	103.011
1,148.44	104.149	1,148.44	103.236	1,148.44	104.941	1,148.44	102.048	1,148.44	98.9526	1,148.44	103.201
1,189.45	104.138	1,189.45	102.597	1,189.45	105.117	1,189.45	101.953	1,189.45	98.8639	1,189.45	103.171
1,231.2	104.088	1,231.2	102.688	1,231.2	105.303	1,231.2	101.819	1,231.2	98.5917	1,231.2	103.204
1,274.41	103.625	1,274.41	102.471	1,274.41	104.845	1,274.41	101.673	1,274.41	98.2246	1,274.41	102.863
1,319.82	103.703	1,319.82	102.135	1,319.82	104.825	1,319.82	101.651	1,319.82	98.1055	1,319.82	102.82
1,365.97	103.616	1,365.97	101.649	1,365.97	104.713	1,365.97	101.737	1,365.97	97.2798	1,365.97	102.71
1,414.31	103.477	1,414.31	101.532	1,414.31	104.332	1,414.31	101.633	1,414.31	96.9254	1,414.31	102.475
1,464.11	103.486	1,464.11	101.971	1,464.11	104.283	1,464.11	101.168	1,464.11	96.3143	1,464.11	102.339
1,515.38	103.342	1,515.38	100.884	1,515.38	104.322	1,515.38	100.881	1,515.38	95.0785	1,515.38	102.114
1,568.85	104.062	1,568.85	99.6893	1,568.85	104.433	1,568.85	100.765	1,568.85	95.4801	1,568.85	102.17
1,624.51	103.448	1,624.51	96.9445	1,624.51	104.079	1,624.51	100.163	1,624.51	95.2547	1,624.51	101.581
1,681.64	102.984	1,681.64	94.2019	1,681.64	103.137	1,681.64	99.8613	1,681.64	94.5072	1,681.64	100.861
1,740.97	103.367	1,740.97	89.431	1,740.97	103.864	1,740.97	100.095	1,740.97	94.3743	1,740.97	101.274
1,802.49	102.407	1,802.49	86.2348	1,802.49	103.998	1,802.49	100.164	1,802.49	95.1528	1,802.49	101.202
1,866.21	102.412	1,866.21	90.7029	1,866.21	103.447	1,866.21	99.7175	1,866.21	94.5034	1,866.21	100.802
1,932.13	102.659	1,932.13	94.1337	1,932.13	103.031	1,932.13	99.016	1,932.13	93.5443	1,932.13	100.478
2,000.24	101.868	2,000.24	95.9873	2,000.24	104.14	2,000.24	99.5688	2,000.24	93.6921	2,000.24	101.129
2,070.56	101.881	2,070.56	96.8663	2,070.56	104.908	2,070.56	100.271	2,070.56	94.5811	2,070.56	101.79
2,143.8	102.349	2,143.8	97.1155	2,143.8	104.503	2,143.8	100.094	2,143.8	94.9059	2,143.8	101.601
2,219.24	102.859	2,219.24	97.4043	2,219.24	103.683	2,219.24	99.2643	2,219.24	93.5179	2,219.24	101.023
2,297.61	102.483	2,297.61	97.9022	2,297.61	104.952	2,297.61	100.242	2,297.61	93.6608	2,297.61	101.906
2,378.17	102.815	2,378.17	98.9011	2,378.17	105.844	2,378.17	100.884	2,378.17	94.1555	2,378.17	102.661
2,462.4	102.981	2,462.4	99.2472	2,462.4	105.54	2,462.4	100.372	2,462.4	93.9313	2,462.4	102.4
2,548.83	102.824	2,548.83	99.0628	2,548.83	105.601	2,548.83	100.235	2,548.83	94.0186	2,548.83	102.373
2,638.92	102.797	2,638.92	100.293	2,638.92	105.837	2,638.92	100.434	2,638.92	93.6707	2,638.92	102.618
2,731.93	102.883	2,731.93	100.716	2,731.93	105.229	2,731.93	100.073	2,731.93	93.2761	2,731.93	102.236
2,828.61	103.042	2,828.61	101.13	2,828.61	105.265	2,828.61	100.215	2,828.61	93.1943	2,828.61	102.344
2,928.22	103.217	2,928.22	100.836	2,928.22	105.072	2,928.22	99.8834	2,928.22	92.8343	2,928.22	102.159
3,031.49	103.336	3,031.49	100.625	3,031.49	104.513	3,031.49	99.2106	3,031.49	91.6274	3,031.49	101.704
3,138.43	103.712	3,138.43	100.127	3,138.43	104.886	3,138.43	99.2543	3,138.43	91.2519	3,138.43	101.928
3,249.02	104.04	3,249.02	99.0395	3,249.02	105.265	3,249.02	99.189	3,249.02	91.1716	3,249.02	102.106
3,363.28	104.094	3,363.28	98.5246	3,363.28	104.918	3,363.28	98.815	3,363.28	91.2481	3,363.28	101.824
3,481.93	103.917	3,481.93	98.1637	3,481.93	105.037	3,481.93	98.8735	3,481.93	91.1319	3,481.93	101.848
3,604.98	103.72	3,604.98	98.9013	3,604.98	104.803	3,604.98	98.7671	3,604.98	90.5361	3,604.98	101.695
3,732.42	103.538	3,732.42	99.344	3,732.42	104.33	3,732.42	98.524	3,732.42	90.2211	3,732.42	101.384
3,863.53	103.049	3,863.53	99.8249	3,863.53	104.039	3,863.53	98.1778	3,863.53	90.6468	3,863.53	101.113
3,999.76	102.548	3,999.76	99.6053	3,999.76	104.279	3,999.76	98.822	3,999.76	91.1965	3,999.76	101.279
4,141.11	102.429	4,141.11	99.2416	4,141.11	104.064	4,141.11	99.0021	4,141.11	91.0486	4,141.11	101.157
4,286.87	102.654	4,286.87	98.7104	4,286.87	105.125	4,286.87	100.093	4,286.87	91.2504	4,286.87	101.995
4,438.48	102.716	4,438.48	98.1288	4,438.48	105.321	4,438.48	100.343	4,438.48	92.0607	4,438.48	102.154
4,594.48	102.66	4,594.48	98.1258	4,594.48	106.214	4,594.48	100.23	4,594.48	90.7959	4,594.48	102.632
4,757.08	103.1	4,757.08	97.9027	4,757.08	106.342	4,757.08	99.9726	4,757.08	88.8757	4,757.08	102.689
4,924.8	103.233	4,924.8	97.8146	4,924.8	106.272	4,924.8	99.6586	4,924.8	90.47	4,924.8	102.606
5,098.39	102.951	5,098.39	97.1663	5,098.39	106.227	5,098.39	99.32	5,098.39	89.9472	5,098.39	102.448
5,277.83	102.927	5,277.83	96.044	5,277.83	105.274	5,277.83	98.9104	5,277.83	89.8964	5,277.83	101.732
5,463.87	102.635	5,463.87	94.9698	5,463.87	105.195	5,463.87	98.7206	5,463.87	89.5983	5,463.87	101.569
5,656.49	102.342	5,656.49	94.9381	5,656.49	104.398	5,656.49	98.1133	5,656.49	88.486	5,656.49	100.907
5,856.45	101.813	5,856.45	95.6249	5,856.45	103.866	5,856.45	98.1314	5,856.45	88.7405	5,856.45	100.538
6,062.99	101.618	6,062.99	95.5065	6,062.99	104.271	6,062.99	98.5743	6,062.99	88.0751	6,062.99	100.837
6,276.86	101.734	6,276.86	95.161	6,276.86	105.069	6,276.86	99.0564	6,276.86	87.6131	6,276.86	101.433
6,498.05	101.752	6,498.05	95.0108	6,498.05	104.924	6,498.05	99.1658	6,498.05	87.4981	6,498.05	101.367
6,727.29	101.94	6,727.29	95.4755	6,727.29	105.431	6,727.29	99.3111	6,727.29	85.4405	6,727.29	101.742
6,964.6	102.042	6,964.6	96.5109	6,964.6	105.739	6,964.6	99.1046	6,964.6	86.9887	6,964.6	101.943
7,209.96	102.103	7,209.96	96.6689	7,209.96	105.462	7,209.96	98.6456	7,209.96	86.8414	7,209.96	101.688
7,464.11	101.996	7,464.11	96.7357	7,464.11	104.676	7,464.11	98.1037	7,464.11	86.8712	7,464.11	101.077
7,727.78	101.605	7,727.78	96.8468	7,727.78	103.755	7,727.78	97.2265	7,727.78	85.639	7,727.78	100.291
8,000.24	100.978	8,000.24	96.964	8,000.24	103.599	8,000.24	96.9076	8,000.24	85.0845	8,000.24	100.047
8,282.23	100.394	8,282.23	97.3282	8,282.23	105.063	8,282.23	98.213	8,282.23	85.4003	8,282.23	101.178
8,574.46	100.602	8,574.46	96.8488	8,574.46	106.281	8,574.46	99.3166	8,574.46	86.1462	8,574.46	102.215
8,876.22	101.129	8,876.22	96.4964	8,876.22	106.372	8,876.22	99.2504	8,876.22	86.4229	8,876.22	102.298
9,189.7	101.386	9,189.7	95.9902	9,189.7	105.627	9,189.7	98.2721	9,189.7	85.5745	9,189.7	101.616
9,513.43	101.042	9,513.43	96.311	9,513.43	104.687	9,513.43	96.7717	9,513.43	83.7671	9,513.43	100.696
9,848.88	100.58	9,848.88	96.6474	9,848.88	104.671	9,848.88	96.0549	9,848.88	81.7775	9,848.88	100.536
10,196.8	100.438	10,196.8	96.8766	10,196.8	105.605	10,196.8	96.3463	10,196.8	82.3598	10,196.8	101.24
10,556.4	100.81	10,556.4	96.3598	10,556.4	106.306	10,556.4	96.6296	10,556.4	82.2966	10,556.4	101.813
10,928.5	101.103	10,928.5	95.9138	10,928.5	106.543	10,928.5	96.1717	10,928.5	81.2541	10,928.5	101.957
11,313.7	101.356	11,313.7	96.0732	11,313.7	106.052	11,313.7	94.9197	11,313.7	78.8076	11,313.7	101.49
11,712.9	101.427	11,712.9	95.7237	11,712.9	104.915	11,712.9	92.6089	11,712.9	78.4165	11,712.9	100.45
12,126	101.33	12,126	96.1423	12,126	104.92	12,126	92.1501	12,126	79.4572	12,126	100.43
12,553.7	101.942	12,553.7	97.1038	12,553.7	105.536	12,553.7	93.1106	12,553.7	81.0647	12,553.7	101.082
12,996.1	102.564	12,996.1	97.4088	12,996.1	105.745	12,996.1	95.3885	12,996.1	84.468	12,996.1	101.519
13,454.6	102.878	13,454.6	98.3069	13,454.6	105.027	13,454.6	97.1934	13,454.6	84.6679	13,454.6	101.347
13,928.5	103.264	13,928.5	98.6453	13,928.5	103.689	13,928.5	97.5939	13,928.5	84.7081	13,928.5	100.73
14,419.9	103.591	14,419.9	98.89	14,419.9	102.745	14,419.9	97.5038	14,419.9	83.8073	14,419.9	100.33
14,928.2	103.542	14,928.2	98.9483	14,928.2	102.994	14,928.2	97.9834	14,928.2	83.6498	14,928.2	100.54
15,454.8	103.59	15,454.8	97.7577	15,454.8	103.191	15,454.8	97.7428	15,454.8	83.2742	15,454.8	100.512
15,999.8	103.295	15,999.8	96.4293	15,999.8	102.783	15,999.8	96.8239	15,999.8	83.4129	15,999.8	99.9816
16,564.5	103.004	16,564.5	94.688	16,564.5	102.158	16,564.5	95.6884	16,564.5	83.0709	16,564.5	99.3031
17,148.2	102.811	17,148.2	93.506	17,148.2	102.4	17,148.2	95.515	17,148.2	82.8824	17,148.2	99.3112
17,753.2	102.838	17,753.2	91.6503	17,753.2	102.916	17,753.2	95.969	17,753.2	82.8741	17,753.2	99.6372
18,379.4	102.906	18,379.4	91.3838	18,379.4	102.206	18,379.4	95.1105	18,379.4	82.3386	18,379.4	99.1131
19,027.6	101.969	19,027.6	91.183	19,027.6	101.257	19,027.6	93.6343	19,027.6	81.6659	19,027.6	98.1081
19,698.5	100.272	19,698.5	89.8361	19,698.5	101.368	19,698.5	93.1101	19,698.5	81.5041	19,698.5	97.6584
19,999.5	99.1604	19,999.5	88.7757	19,999.5	101.258	19,999.5	92.4566	19,999.5	81.2291	19,999.5	97.2652
