"SPL Vertical"																																																																							
"On-Axis"		"10°"		"-10°"		"20°"		"-20°"		"30°"		"-30°"		"40°"		"-40°"		"50°"		"-50°"		"60°"		"-60°"		"70°"		"-70°"		"80°"		"-80°"		"90°"		"-90°"		"100°"		"-100°"		"110°"		"-110°"		"120°"		"-120°"		"130°"		"-130°"		"140°"		"-140°"		"150°"		"-150°"		"160°"		"-160°"		"170°"		"-170°"		"180°"	
"Frequency [Hz]"	"Sound Pessure Level [dB]  / [2.83V 1m] "	"Frequency [Hz]"	"Sound Pessure Level [dB]  / [2.83V 1m] "	"Frequency [Hz]"	"Sound Pessure Level [dB]  / [2.83V 1m] "	"Frequency [Hz]"	"Sound Pessure Level [dB]  / [2.83V 1m] "	"Frequency [Hz]"	"Sound Pessure Level [dB]  / [2.83V 1m] "	"Frequency [Hz]"	"Sound Pessure Level [dB]  / [2.83V 1m] "	"Frequency [Hz]"	"Sound Pessure Level [dB]  / [2.83V 1m] "	"Frequency [Hz]"	"Sound Pessure Level [dB]  / [2.83V 1m] "	"Frequency [Hz]"	"Sound Pessure Level [dB]  / [2.83V 1m] "	"Frequency [Hz]"	"Sound Pessure Level [dB]  / [2.83V 1m] "	"Frequency [Hz]"	"Sound Pessure Level [dB]  / [2.83V 1m] "	"Frequency [Hz]"	"Sound Pessure Level [dB]  / [2.83V 1m] "	"Frequency [Hz]"	"Sound Pessure Level [dB]  / [2.83V 1m] "	"Frequency [Hz]"	"Sound Pessure Level [dB]  / [2.83V 1m] "	"Frequency [Hz]"	"Sound Pessure Level [dB]  / [2.83V 1m] "	"Frequency [Hz]"	"Sound Pessure Level [dB]  / [2.83V 1m] "	"Frequency [Hz]"	"Sound Pessure Level [dB]  / [2.83V 1m] "	"Frequency [Hz]"	"Sound Pessure Level [dB]  / [2.83V 1m] "	"Frequency [Hz]"	"Sound Pessure Level [dB]  / [2.83V 1m] "	"Frequency [Hz]"	"Sound Pessure Level [dB]  / [2.83V 1m] "	"Frequency [Hz]"	"Sound Pessure Level [dB]  / [2.83V 1m] "	"Frequency [Hz]"	"Sound Pessure Level [dB]  / [2.83V 1m] "	"Frequency [Hz]"	"Sound Pessure Level [dB]  / [2.83V 1m] "	"Frequency [Hz]"	"Sound Pessure Level [dB]  / [2.83V 1m] "	"Frequency [Hz]"	"Sound Pessure Level [dB]  / [2.83V 1m] "	"Frequency [Hz]"	"Sound Pessure Level [dB]  / [2.83V 1m] "	"Frequency [Hz]"	"Sound Pessure Level [dB]  / [2.83V 1m] "	"Frequency [Hz]"	"Sound Pessure Level [dB]  / [2.83V 1m] "	"Frequency [Hz]"	"Sound Pessure Level [dB]  / [2.83V 1m] "	"Frequency [Hz]"	"Sound Pessure Level [dB]  / [2.83V 1m] "	"Frequency [Hz]"	"Sound Pessure Level [dB]  / [2.83V 1m] "	"Frequency [Hz]"	"Sound Pessure Level [dB]  / [2.83V 1m] "	"Frequency [Hz]"	"Sound Pessure Level [dB]  / [2.83V 1m] "	"Frequency [Hz]"	"Sound Pessure Level [dB]  / [2.83V 1m] "	"Frequency [Hz]"	"Sound Pessure Level [dB]  / [2.83V 1m] "	"Frequency [Hz]"	"Sound Pessure Level [dB]  / [2.83V 1m] "
20.5078	64.7105	20.5078	64.4759	20.5078	64.9538	20.5078	64.2552	20.5078	65.2	20.5078	64.0529	20.5078	65.4423	20.5078	63.8729	20.5078	65.6733	20.5078	63.7181	20.5078	65.8849	20.5078	63.5907	20.5078	66.0685	20.5078	63.4923	20.5078	66.2153	20.5078	63.4238	20.5078	66.3168	20.5078	63.3856	20.5078	66.3654	20.5078	63.3782	20.5078	66.3554	20.5078	63.402	20.5078	66.2837	20.5078	63.4581	20.5078	66.1505	20.5078	63.5482	20.5078	65.9602	20.5078	63.6744	20.5078	65.7212	20.5078	63.8385	20.5078	65.4456	20.5078	64.0412	20.5078	65.1482	20.5078	64.2807	20.5078	64.8452	20.5078	64.5517
21.2402	57.764	21.2402	57.5259	21.2402	58.0651	21.2402	57.3567	21.2402	58.4193	21.2402	57.2582	21.2402	58.8128	21.2402	57.2287	21.2402	59.2298	21.2402	57.2642	21.2402	59.6529	21.2402	57.3593	21.2402	60.0651	21.2402	57.5087	21.2402	60.4504	21.2402	57.7071	21.2402	60.7951	21.2402	57.9494	21.2402	61.0881	21.2402	58.2306	21.2402	61.3213	21.2402	58.5448	21.2402	61.49	21.2402	58.885	21.2402	61.5922	21.2402	59.2426	21.2402	61.6285	21.2402	59.6074	21.2402	61.6009	21.2402	59.9687	21.2402	61.5126	21.2402	60.3152	21.2402	61.3674	21.2402	60.6366	21.2402	61.1695	21.2402	60.9239
21.9727	56.9746	21.9727	56.9896	21.9727	57.002	21.9727	57.0472	21.9727	57.0687	21.9727	57.145	21.9727	57.1686	21.9727	57.2788	21.9727	57.2934	21.9727	57.4435	21.9727	57.4337	21.9727	57.6333	21.9727	57.5812	21.9727	57.8429	21.9727	57.7296	21.9727	58.0671	21.9727	57.8774	21.9727	58.3008	21.9727	58.0273	21.9727	58.5388	21.9727	58.1863	21.9727	58.7753	21.9727	58.3625	21.9727	59.0033	21.9727	58.5611	21.9727	59.2143	21.9727	58.78	21.9727	59.3986	21.9727	59.0088	21.9727	59.5451	21.9727	59.2299	21.9727	59.643	21.9727	59.4232	21.9727	59.683	21.9727	59.5705	21.9727	59.659
22.7051	63.7598	22.7051	63.5538	22.7051	63.9732	22.7051	63.3596	22.7051	64.1888	22.7051	63.1809	22.7051	64.401	22.7051	63.0208	22.7051	64.6033	22.7051	62.882	22.7051	64.7888	22.7051	62.7667	22.7051	64.9504	22.7051	62.6768	22.7051	65.081	22.7051	62.6142	22.7051	65.174	22.7051	62.5804	22.7051	65.2235	22.7051	62.5771	22.7051	65.2253	22.7051	62.6058	22.7051	65.1767	22.7051	62.6682	22.7051	65.0777	22.7051	62.7655	22.7051	64.9307	22.7051	62.8984	22.7051	64.7411	22.7051	63.0665	22.7051	64.517	22.7051	63.2674	22.7051	64.2686	22.7051	63.4965	22.7051	64.0077	22.7051	63.7465
23.4375	58.0956	23.4375	57.5519	23.4375	58.6367	23.4375	57.0184	23.4375	59.1623	23.4375	56.5082	23.4375	59.6596	23.4375	56.034	23.4375	60.116	23.4375	55.6079	23.4375	60.519	23.4375	55.2417	23.4375	60.8564	23.4375	54.9459	23.4375	61.1169	23.4375	54.7299	23.4375	61.2897	23.4375	54.6018	23.4375	61.3659	23.4375	54.5684	23.4375	61.3385	23.4375	54.635	23.4375	61.2032	23.4375	54.8051	23.4375	60.9593	23.4375	55.0796	23.4375	60.6101	23.4375	55.4558	23.4375	60.1635	23.4375	55.9258	23.4375	59.6327	23.4375	56.4763	23.4375	59.0355	23.4375	57.0878	23.4375	58.3947	23.4375	57.7363
24.1699	60.3207	24.1699	59.8396	24.1699	60.8035	24.1699	59.3724	24.1699	61.2759	24.1699	58.9313	24.1699	61.7256	24.1699	58.528	24.1699	62.1405	24.1699	58.1736	24.1699	62.5087	24.1699	57.8782	24.1699	62.8189	24.1699	57.6508	24.1699	63.06	24.1699	57.4984	24.1699	63.2225	24.1699	57.4263	24.1699	63.2981	24.1699	57.4375	24.1699	63.2808	24.1699	57.5329	24.1699	63.1673	24.1699	57.7116	24.1699	62.9579	24.1699	57.9707	24.1699	62.6568	24.1699	58.3055	24.1699	62.2726	24.1699	58.7092	24.1699	61.8184	24.1699	59.1721	24.1699	61.3113	24.1699	59.6815	24.1699	60.7716	24.1699	60.2212
25.6348	59.4925	25.6348	59.1006	25.6348	59.9138	25.6348	58.7509	25.6348	60.3502	25.6348	58.4545	25.6348	60.7867	25.6348	58.2199	25.6348	61.2079	25.6348	58.0532	25.6348	61.5991	25.6348	57.9574	25.6348	61.9468	25.6348	57.9335	25.6348	62.2386	25.6348	57.9797	25.6348	62.4647	25.6348	58.0925	25.6348	62.6176	25.6348	58.2666	25.6348	62.6927	25.6348	58.4952	25.6348	62.6887	25.6348	58.7706	25.6348	62.6075	25.6348	59.0845	25.6348	62.4543	25.6348	59.4282	25.6348	62.2369	25.6348	59.7933	25.6348	61.9653	25.6348	60.1715	25.6348	61.6504	25.6348	60.5548	25.6348	61.3034	25.6348	60.935
26.3672	63.8641	26.3672	63.5119	26.3672	64.2241	26.3672	63.1765	26.3672	64.5825	26.3672	62.8664	26.3672	64.9291	26.3672	62.5891	26.3672	65.2536	26.3672	62.3516	26.3672	65.5455	26.3672	62.1602	26.3672	65.7949	26.3672	62.0205	26.3672	65.9923	26.3672	61.9369	26.3672	66.1294	26.3672	61.913	26.3672	66.1999	26.3672	61.9508	26.3672	66.1996	26.3672	62.0505	26.3672	66.1272	26.3672	62.2104	26.3672	65.9842	26.3672	62.4266	26.3672	65.7756	26.3672	62.693	26.3672	65.5092	26.3672	63.0022	26.3672	65.1954	26.3672	63.3451	26.3672	64.8462	26.3672	63.7119	26.3672	64.4742	26.3672	64.092
27.0996	63.4746	27.0996	63.1481	27.0996	63.8146	27.0996	62.8447	27.0996	64.158	27.0996	62.5726	27.0996	64.4935	27.0996	62.3388	27.0996	64.8099	27.0996	62.1491	27.0996	65.0956	27.0996	62.0076	27.0996	65.3397	27.0996	61.9174	27.0996	65.5322	27.0996	61.8797	27.0996	65.6647	27.0996	61.8946	27.0996	65.7311	27.0996	61.9606	27.0996	65.728	27.0996	62.0749	27.0996	65.6553	27.0996	62.2335	27.0996	65.5164	27.0996	62.4317	27.0996	65.3184	27.0996	62.6641	27.0996	65.071	27.0996	62.9255	27.0996	64.7863	27.0996	63.2107	27.0996	64.4771	27.0996	63.5146	27.0996	64.1554	27.0996	63.8317
27.832	64.2308	27.832	63.895	27.832	64.5783	27.832	63.5793	27.832	64.9277	27.832	63.2912	27.832	65.2684	27.832	63.0364	27.832	65.5889	27.832	62.82	27.832	65.8775	27.832	62.6456	27.832	66.123	27.832	62.5163	27.832	66.3148	27.832	62.4346	27.832	66.4439	27.832	62.4021	27.832	66.5032	27.832	62.4201	27.832	66.4885	27.832	62.4892	27.832	66.3985	27.832	62.6093	27.832	66.2355	27.832	62.7796	27.832	66.0055	27.832	62.9981	27.832	65.7181	27.832	63.2619	27.832	65.3857	27.832	63.5662	27.832	65.0229	27.832	63.9045	27.832	64.6453	27.832	64.268
29.2969	66.2063	29.2969	65.9519	29.2969	66.4932	29.2969	65.7367	29.2969	66.803	29.2969	65.5648	29.2969	67.1236	29.2969	65.4378	29.2969	67.4414	29.2969	65.3554	29.2969	67.7422	29.2969	65.3161	29.2969	68.0121	29.2969	65.3181	29.2969	68.2388	29.2969	65.3592	29.2969	68.4122	29.2969	65.4371	29.2969	68.5251	29.2969	65.5493	29.2969	68.574	29.2969	65.6931	29.2969	68.559	29.2969	65.8649	29.2969	68.4839	29.2969	66.0608	29.2969	68.3555	29.2969	66.2766	29.2969	68.183	29.2969	66.5078	29.2969	67.9769	29.2969	66.7501	29.2969	67.7472	29.2969	66.9995	29.2969	67.5032	29.2969	67.2521
30.0293	69.8526	30.0293	69.5885	30.0293	70.1351	30.0293	69.35	30.0293	70.4271	30.0293	69.1425	30.0293	70.7187	30.0293	68.97	30.0293	70.9991	30.0293	68.8348	30.0293	71.2573	30.0293	68.7382	30.0293	71.4824	30.0293	68.6804	30.0293	71.6646	30.0293	68.661	30.0293	71.7956	30.0293	68.6792	30.0293	71.8692	30.0293	68.734	30.0293	71.8817	30.0293	68.8241	30.0293	71.8325	30.0293	68.9481	30.0293	71.724	30.0293	69.1044	30.0293	71.5616	30.0293	69.2911	30.0293	71.3535	30.0293	69.5057	30.0293	71.1099	30.0293	69.7451	30.0293	70.8422	30.0293	70.005	30.0293	70.5619	30.0293	70.2797
31.4941	70.7858	31.4941	70.5576	31.4941	71.0307	31.4941	70.3516	31.4941	71.2852	31.4941	70.1716	31.4941	71.5408	31.4941	70.0203	31.4941	71.7881	31.4941	69.8988	31.4941	72.0169	31.4941	69.8078	31.4941	72.2173	31.4941	69.7473	31.4941	72.3797	31.4941	69.7173	31.4941	72.4961	31.4941	69.7178	31.4941	72.5603	31.4941	69.7489	31.4941	72.5685	31.4941	69.811	31.4941	72.5199	31.4941	69.9043	31.4941	72.4162	31.4941	70.0288	31.4941	72.2626	31.4941	70.1841	31.4941	72.0667	31.4941	70.3687	31.4941	71.8381	31.4941	70.5802	31.4941	71.5876	31.4941	70.8145	31.4941	71.3267	31.4941	71.0659
32.2266	71.7829	32.2266	71.5349	32.2266	72.0484	32.2266	71.3104	32.2266	72.3233	32.2266	71.1142	32.2266	72.5986	32.2266	70.9495	32.2266	72.8643	32.2266	70.8182	32.2266	73.1098	32.2266	70.7214	32.2266	73.3249	32.2266	70.6593	32.2266	73.4999	32.2266	70.6321	32.2266	73.6268	32.2266	70.6397	32.2266	73.6993	32.2266	70.6821	32.2266	73.7137	32.2266	70.759	32.2266	73.6688	32.2266	70.8704	32.2266	73.5666	32.2266	71.0154	32.2266	73.4118	32.2266	71.1929	32.2266	73.2118	32.2266	71.4006	32.2266	72.976	32.2266	71.635	32.2266	72.7151	32.2266	71.8911	32.2266	72.4402	32.2266	72.1623
33.6914	75.1399	33.6914	74.9336	33.6914	75.3624	33.6914	74.7493	33.6914	75.5946	33.6914	74.5909	33.6914	75.8286	33.6914	74.4615	33.6914	76.0558	33.6914	74.3629	33.6914	76.2671	33.6914	74.2961	33.6914	76.4537	33.6914	74.2612	33.6914	76.6074	33.6914	74.2579	33.6914	76.7211	33.6914	74.2853	33.6914	76.7896	33.6914	74.3424	33.6914	76.81	33.6914	74.4275	33.6914	76.7817	33.6914	74.5391	33.6914	76.7066	33.6914	74.6749	33.6914	76.5892	33.6914	74.8328	33.6914	76.436	33.6914	75.01	33.6914	76.2545	33.6914	75.2034	33.6914	76.0532	33.6914	75.4094	33.6914	75.8404	33.6914	75.6236
34.4238	75.9674	34.4238	75.7775	34.4238	76.1739	34.4238	75.6089	34.4238	76.3906	34.4238	75.4653	34.4238	76.6102	34.4238	75.349	34.4238	76.8243	34.4238	75.2612	34.4238	77.0243	34.4238	75.2022	34.4238	77.2013	34.4238	75.172	34.4238	77.3472	34.4238	75.1699	34.4238	77.4552	34.4238	75.195	34.4238	77.52	34.4238	75.2462	34.4238	77.5386	34.4238	75.3224	34.4238	77.5107	34.4238	75.4222	34.4238	77.4381	34.4238	75.5442	34.4238	77.3254	34.4238	75.6867	34.4238	77.1788	34.4238	75.8476	34.4238	77.0062	34.4238	76.0245	34.4238	76.8158	34.4238	76.2143	34.4238	76.6156	34.4238	76.413
35.8887	78.1122	35.8887	77.9198	35.8887	78.3186	35.8887	77.7464	35.8887	78.533	35.8887	77.5959	35.8887	78.7481	35.8887	77.4709	35.8887	78.956	35.8887	77.3733	35.8887	79.1483	35.8887	77.3038	35.8887	79.317	35.8887	77.2628	35.8887	79.4542	35.8887	77.2503	35.8887	79.5535	35.8887	77.2655	35.8887	79.61	35.8887	77.3079	35.8887	79.6209	35.8887	77.3766	35.8887	79.5859	35.8887	77.4703	35.8887	79.507	35.8887	77.5876	35.8887	79.3886	35.8887	77.7271	35.8887	79.2369	35.8887	77.8865	35.8887	79.0596	35.8887	78.0634	35.8887	78.865	35.8887	78.2544	35.8887	78.6611	35.8887	78.4554
37.3535	80.4678	37.3535	80.2878	37.3535	80.6594	37.3535	80.1241	37.3535	80.8569	37.3535	79.9801	37.3535	81.0539	37.3535	79.8586	37.3535	81.2431	37.3535	79.7612	37.3535	81.4168	37.3535	79.6891	37.3535	81.5676	37.3535	79.6428	37.3535	81.6884	37.3535	79.6226	37.3535	81.7732	37.3535	79.6283	37.3535	81.8178	37.3535	79.6594	37.3535	81.8198	37.3535	79.7155	37.3535	81.7791	37.3535	79.7956	37.3535	81.6979	37.3535	79.8988	37.3535	81.5807	37.3535	80.0236	37.3535	81.4334	37.3535	80.1682	37.3535	81.2635	37.3535	80.3303	37.3535	81.0785	37.3535	80.5068	37.3535	80.8863	37.3535	80.6937
38.8184	82.4278	38.8184	82.2572	38.8184	82.6092	38.8184	82.1019	38.8184	82.7959	38.8184	81.9654	38.8184	82.9814	38.8184	81.8504	38.8184	83.1586	38.8184	81.7584	38.8184	83.32	38.8184	81.6904	38.8184	83.4583	38.8184	81.6469	38.8184	83.5669	38.8184	81.6275	38.8184	83.6401	38.8184	81.6321	38.8184	83.6743	38.8184	81.66	38.8184	83.6674	38.8184	81.7102	38.8184	83.6201	38.8184	81.7819	38.8184	83.5352	38.8184	81.8738	38.8184	83.4175	38.8184	81.9848	38.8184	83.2737	38.8184	82.1133	38.8184	83.1112	38.8184	82.2576	38.8184	82.9375	38.8184	82.4155	38.8184	82.7598	38.8184	82.5842
39.5508	83.4232	39.5508	83.2539	39.5508	83.6026	39.5508	83.0994	39.5508	83.7866	39.5508	82.9631	39.5508	83.9687	39.5508	82.8476	39.5508	84.142	39.5508	82.7548	39.5508	84.299	39.5508	82.6855	39.5508	84.4325	39.5508	82.6402	39.5508	84.536	39.5508	82.6187	39.5508	84.604	39.5508	82.6206	39.5508	84.6329	39.5508	82.6453	39.5508	84.6211	39.5508	82.6918	39.5508	84.5691	39.5508	82.7592	39.5508	84.4802	39.5508	82.8464	39.5508	84.3596	39.5508	82.9521	39.5508	84.2139	39.5508	83.0751	39.5508	84.0508	39.5508	83.2139	39.5508	83.878	39.5508	83.3666	39.5508	83.7027	39.5508	83.5306
41.0156	85.2879	41.0156	85.0894	41.0156	85.4935	41.0156	84.9033	41.0156	85.7002	41.0156	84.7341	41.0156	85.9013	41.0156	84.5852	41.0156	86.0896	41.0156	84.4595	41.0156	86.2577	41.0156	84.3589	41.0156	86.3983	41.0156	84.285	41.0156	86.5049	41.0156	84.2385	41.0156	86.5719	41.0156	84.2199	41.0156	86.5954	41.0156	84.2294	41.0156	86.5733	41.0156	84.2666	41.0156	86.506	41.0156	84.3313	41.0156	86.3962	41.0156	84.4227	41.0156	86.249	41.0156	84.54	41.0156	86.0714	41.0156	84.6819	41.0156	85.872	41.0156	84.8465	41.0156	85.6598	41.0156	85.0311	41.0156	85.4437	41.0156	85.2319
42.4805	87.722	42.4805	87.549	42.4805	87.9014	42.4805	87.3869	42.4805	88.082	42.4805	87.2394	42.4805	88.258	42.4805	87.1097	42.4805	88.4231	42.4805	87.0001	42.4805	88.5707	42.4805	86.9126	42.4805	88.6945	42.4805	86.8483	42.4805	88.7886	42.4805	86.8084	42.4805	88.8481	42.4805	86.7934	42.4805	88.8696	42.4805	86.8035	42.4805	88.8515	42.4805	86.8386	42.4805	88.7942	42.4805	86.8983	42.4805	88.7003	42.4805	86.9818	42.4805	88.5743	42.4805	87.0881	42.4805	88.4224	42.4805	87.2155	42.4805	88.2517	42.4805	87.3619	42.4805	88.0696	42.4805	87.5246	42.4805	87.8835	42.4805	87.7
43.9453	89.7137	43.9453	89.5459	43.9453	89.8875	43.9453	89.3884	43.9453	90.062	43.9453	89.245	43.9453	90.2316	43.9453	89.1187	43.9453	90.3902	43.9453	89.0119	43.9453	90.5314	43.9453	88.9265	43.9453	90.649	43.9453	88.8638	43.9453	90.7375	43.9453	88.8246	43.9453	90.7922	43.9453	88.8094	43.9453	90.81	43.9453	88.8184	43.9453	90.7893	43.9453	88.8513	43.9453	90.7308	43.9453	88.9077	43.9453	90.6372	43.9453	88.9868	43.9453	90.5132	43.9453	89.0874	43.9453	90.3647	43.9453	89.2081	43.9453	90.1989	43.9453	89.347	43.9453	90.0231	43.9453	89.5016	43.9453	89.8443	43.9453	89.6687
45.4102	91.5076	45.4102	91.3438	45.4102	91.6761	45.4102	91.1891	45.4102	91.8444	45.4102	91.0473	45.4102	92.007	45.4102	90.9215	45.4102	92.1578	45.4102	90.8142	45.4102	92.2909	45.4102	90.7274	45.4102	92.4005	45.4102	90.6626	45.4102	92.4811	45.4102	90.6207	45.4102	92.5287	45.4102	90.6023	45.4102	92.5402	45.4102	90.6076	45.4102	92.5146	45.4102	90.6365	45.4102	92.4527	45.4102	90.6883	45.4102	92.3574	45.4102	90.7623	45.4102	92.2335	45.4102	90.8574	45.4102	92.0869	45.4102	90.972	45.4102	91.9247	45.4102	91.1043	45.4102	91.754	45.4102	91.2521	45.4102	91.5812	45.4102	91.4123
47.6074	94.2087	47.6074	94.0537	47.6074	94.3677	47.6074	93.9069	47.6074	94.5259	47.6074	93.7719	47.6074	94.6781	47.6074	93.6518	47.6074	94.8186	47.6074	93.5488	47.6074	94.9418	47.6074	93.4651	47.6074	95.0422	47.6074	93.4019	47.6074	95.1149	47.6074	93.3603	47.6074	95.1558	47.6074	93.3408	47.6074	95.1625	47.6074	93.3436	47.6074	95.1341	47.6074	93.3685	47.6074	95.0716	47.6074	93.415	47.6074	94.9781	47.6074	93.4823	47.6074	94.8582	47.6074	93.5694	47.6074	94.7179	47.6074	93.6748	47.6074	94.5639	47.6074	93.797	47.6074	94.4027	47.6074	93.9339	47.6074	94.2406	47.6074	94.0829
49.0723	95.8913	49.0723	95.7393	49.0723	96.0466	49.0723	95.5947	49.0723	96.2005	49.0723	95.4612	49.0723	96.3477	49.0723	95.3418	49.0723	96.483	49.0723	95.2389	49.0723	96.6006	49.0723	95.1547	49.0723	96.6954	49.0723	95.0904	49.0723	96.7626	49.0723	95.0473	49.0723	96.7986	49.0723	95.0257	49.0723	96.801	49.0723	95.026	49.0723	96.7692	49.0723	95.0479	49.0723	96.7043	49.0723	95.091	49.0723	96.6096	49.0723	95.1544	49.0723	96.4898	49.0723	95.2371	49.0723	96.3509	49.0723	95.3379	49.0723	96.1993	49.0723	95.4551	49.0723	96.0416	49.0723	95.5869	49.0723	95.8837	49.0723	95.7308
50.5371	97.446	50.5371	97.2967	50.5371	97.5979	50.5371	97.1542	50.5371	97.7479	50.5371	97.0221	50.5371	97.8908	50.5371	96.9035	50.5371	98.0214	50.5371	96.801	50.5371	98.1343	50.5371	96.7165	50.5371	98.2245	50.5371	96.6517	50.5371	98.2873	50.5371	96.6074	50.5371	98.3194	50.5371	96.5845	50.5371	98.3187	50.5371	96.583	50.5371	98.2846	50.5371	96.6029	50.5371	98.2185	50.5371	96.6436	50.5371	98.1237	50.5371	96.7044	50.5371	98.0049	50.5371	96.7841	50.5371	97.8679	50.5371	96.8815	50.5371	97.7192	50.5371	96.995	50.5371	97.5651	50.5371	97.1228	50.5371	97.4113	50.5371	97.2625
52.7344	99.5163	52.7344	99.3719	52.7344	99.6627	52.7344	99.2336	52.7344	99.8065	52.7344	99.105	52.7344	99.943	52.7344	98.9893	52.7344	100.067	52.7344	98.889	52.7344	100.173	52.7344	98.8061	52.7344	100.257	52.7344	98.7423	52.7344	100.314	52.7344	98.6987	52.7344	100.342	52.7344	98.6758	52.7344	100.338	52.7344	98.674	52.7344	100.303	52.7344	98.6928	52.7344	100.237	52.7344	98.7318	52.7344	100.144	52.7344	98.79	52.7344	100.029	52.7344	98.8663	52.7344	99.8975	52.7344	98.9594	52.7344	99.7555	52.7344	99.0675	52.7344	99.6088	52.7344	99.189	52.7344	99.4627	52.7344	99.3216
54.1992	100.696	54.1992	100.554	54.1992	100.84	54.1992	100.417	54.1992	100.98	54.1992	100.289	54.1992	101.113	54.1992	100.175	54.1992	101.234	54.1992	100.075	54.1992	101.336	54.1992	99.9918	54.1992	101.416	54.1992	99.9278	54.1992	101.47	54.1992	99.8838	54.1992	101.495	54.1992	99.8603	54.1992	101.488	54.1992	99.8575	54.1992	101.451	54.1992	99.8753	54.1992	101.384	54.1992	99.9129	54.1992	101.292	54.1992	99.9694	54.1992	101.178	54.1992	100.044	54.1992	101.048	54.1992	100.134	54.1992	100.909	54.1992	100.239	54.1992	100.766	54.1992	100.357	54.1992	100.623	54.1992	100.486
56.3965	102.135	56.3965	101.997	56.3965	102.275	56.3965	101.865	56.3965	102.41	56.3965	101.74	56.3965	102.538	56.3965	101.628	56.3965	102.653	56.3965	101.531	56.3965	102.75	56.3965	101.45	56.3965	102.825	56.3965	101.387	56.3965	102.875	56.3965	101.344	56.3965	102.896	56.3965	101.321	56.3965	102.887	56.3965	101.318	56.3965	102.849	56.3965	101.336	56.3965	102.783	56.3965	101.372	56.3965	102.692	56.3965	101.427	56.3965	102.582	56.3965	101.498	56.3965	102.457	56.3965	101.585	56.3965	102.324	56.3965	101.686	56.3965	102.187	56.3965	101.798	56.3965	102.052	56.3965	101.921
