"SPL Horizontal"																																																																							
"On-Axis"		"10°"		"-10°"		"20°"		"-20°"		"30°"		"-30°"		"40°"		"-40°"		"50°"		"-50°"		"60°"		"-60°"		"70°"		"-70°"		"80°"		"-80°"		"90°"		"-90°"		"100°"		"-100°"		"110°"		"-110°"		"120°"		"-120°"		"130°"		"-130°"		"140°"		"-140°"		"150°"		"-150°"		"160°"		"-160°"		"170°"		"-170°"		"180°"	
"Frequency [Hz]"	"Sound Pessure Level [dB]  / [2.83V 1m] "	"Frequency [Hz]"	"Sound Pessure Level [dB]  / [2.83V 1m] "	"Frequency [Hz]"	"Sound Pessure Level [dB]  / [2.83V 1m] "	"Frequency [Hz]"	"Sound Pessure Level [dB]  / [2.83V 1m] "	"Frequency [Hz]"	"Sound Pessure Level [dB]  / [2.83V 1m] "	"Frequency [Hz]"	"Sound Pessure Level [dB]  / [2.83V 1m] "	"Frequency [Hz]"	"Sound Pessure Level [dB]  / [2.83V 1m] "	"Frequency [Hz]"	"Sound Pessure Level [dB]  / [2.83V 1m] "	"Frequency [Hz]"	"Sound Pessure Level [dB]  / [2.83V 1m] "	"Frequency [Hz]"	"Sound Pessure Level [dB]  / [2.83V 1m] "	"Frequency [Hz]"	"Sound Pessure Level [dB]  / [2.83V 1m] "	"Frequency [Hz]"	"Sound Pessure Level [dB]  / [2.83V 1m] "	"Frequency [Hz]"	"Sound Pessure Level [dB]  / [2.83V 1m] "	"Frequency [Hz]"	"Sound Pessure Level [dB]  / [2.83V 1m] "	"Frequency [Hz]"	"Sound Pessure Level [dB]  / [2.83V 1m] "	"Frequency [Hz]"	"Sound Pessure Level [dB]  / [2.83V 1m] "	"Frequency [Hz]"	"Sound Pessure Level [dB]  / [2.83V 1m] "	"Frequency [Hz]"	"Sound Pessure Level [dB]  / [2.83V 1m] "	"Frequency [Hz]"	"Sound Pessure Level [dB]  / [2.83V 1m] "	"Frequency [Hz]"	"Sound Pessure Level [dB]  / [2.83V 1m] "	"Frequency [Hz]"	"Sound Pessure Level [dB]  / [2.83V 1m] "	"Frequency [Hz]"	"Sound Pessure Level [dB]  / [2.83V 1m] "	"Frequency [Hz]"	"Sound Pessure Level [dB]  / [2.83V 1m] "	"Frequency [Hz]"	"Sound Pessure Level [dB]  / [2.83V 1m] "	"Frequency [Hz]"	"Sound Pessure Level [dB]  / [2.83V 1m] "	"Frequency [Hz]"	"Sound Pessure Level [dB]  / [2.83V 1m] "	"Frequency [Hz]"	"Sound Pessure Level [dB]  / [2.83V 1m] "	"Frequency [Hz]"	"Sound Pessure Level [dB]  / [2.83V 1m] "	"Frequency [Hz]"	"Sound Pessure Level [dB]  / [2.83V 1m] "	"Frequency [Hz]"	"Sound Pessure Level [dB]  / [2.83V 1m] "	"Frequency [Hz]"	"Sound Pessure Level [dB]  / [2.83V 1m] "	"Frequency [Hz]"	"Sound Pessure Level [dB]  / [2.83V 1m] "	"Frequency [Hz]"	"Sound Pessure Level [dB]  / [2.83V 1m] "	"Frequency [Hz]"	"Sound Pessure Level [dB]  / [2.83V 1m] "	"Frequency [Hz]"	"Sound Pessure Level [dB]  / [2.83V 1m] "	"Frequency [Hz]"	"Sound Pessure Level [dB]  / [2.83V 1m] "
20.5078	64.7105	20.5078	64.5316	20.5078	64.9025	20.5078	64.3679	20.5078	65.1038	20.5078	64.2204	20.5078	65.3096	20.5078	64.089	20.5078	65.5134	20.5078	63.9727	20.5078	65.7077	20.5078	63.8706	20.5078	65.884	20.5078	63.7817	20.5078	66.0333	20.5078	63.7062	20.5078	66.1463	20.5078	63.6453	20.5078	66.2143	20.5078	63.6024	20.5078	66.2295	20.5078	63.5822	20.5078	66.1865	20.5078	63.5913	20.5078	66.0825	20.5078	63.6369	20.5078	65.9187	20.5078	63.7257	20.5078	65.7008	20.5078	63.8624	20.5078	65.4392	20.5078	64.0487	20.5078	65.1486	20.5078	64.2813	20.5078	64.8465	20.5078	64.5517
21.2402	57.764	21.2402	57.7336	21.2402	57.8514	21.2402	57.7567	21.2402	57.9965	21.2402	57.8284	21.2402	58.1969	21.2402	57.9427	21.2402	58.4464	21.2402	58.0938	21.2402	58.7355	21.2402	58.2759	21.2402	59.0517	21.2402	58.4839	21.2402	59.3809	21.2402	58.7132	21.2402	59.7082	21.2402	58.9592	21.2402	60.0194	21.2402	59.2169	21.2402	60.302	21.2402	59.4808	21.2402	60.5461	21.2402	59.7443	21.2402	60.7447	21.2402	60	21.2402	60.8939	21.2402	60.2403	21.2402	60.9928	21.2402	60.4581	21.2402	61.0426	21.2402	60.6474	21.2402	61.0458	21.2402	60.8038	21.2402	61.0054	21.2402	60.9239
21.9727	56.9746	21.9727	57.143	21.9727	56.8291	21.9727	57.3303	21.9727	56.7099	21.9727	57.5325	21.9727	56.6193	21.9727	57.7455	21.9727	56.5588	21.9727	57.9662	21.9727	56.5294	21.9727	58.1918	21.9727	56.5325	21.9727	58.4206	21.9727	56.5712	21.9727	58.6511	21.9727	56.651	21.9727	58.8814	21.9727	56.78	21.9727	59.1083	21.9727	56.9671	21.9727	59.3267	21.9727	57.2189	21.9727	59.528	21.9727	57.5347	21.9727	59.7007	21.9727	57.9037	21.9727	59.831	21.9727	58.3044	21.9727	59.9038	21.9727	58.7084	21.9727	59.9054	21.9727	59.0853	21.9727	59.8255	21.9727	59.4087	21.9727	59.659
22.7051	63.7598	22.7051	63.7534	22.7051	63.7721	22.7051	63.751	22.7051	63.7916	22.7051	63.7502	22.7051	63.8191	22.7051	63.7488	22.7051	63.8542	22.7051	63.7445	22.7051	63.8959	22.7051	63.7354	22.7051	63.9419	22.7051	63.7205	22.7051	63.9891	22.7051	63.6995	22.7051	64.0338	22.7051	63.6734	22.7051	64.0714	22.7051	63.6444	22.7051	64.0977	22.7051	63.6159	22.7051	64.1088	22.7051	63.5923	22.7051	64.1017	22.7051	63.5781	22.7051	64.0754	22.7051	63.5777	22.7051	64.0304	22.7051	63.5941	22.7051	63.9695	22.7051	63.6288	22.7051	63.8977	22.7051	63.6807	22.7051	63.821	22.7051	63.7465
23.4375	58.0956	23.4375	57.7864	23.4375	58.4117	23.4375	57.4894	23.4375	58.7283	23.4375	57.2087	23.4375	59.0377	23.4375	56.9473	23.4375	59.3313	23.4375	56.7075	23.4375	59.6001	23.4375	56.4914	23.4375	59.8341	23.4375	56.3019	23.4375	60.0236	23.4375	56.1426	23.4375	60.1587	23.4375	56.0195	23.4375	60.2305	23.4375	55.9403	23.4375	60.2313	23.4375	55.915	23.4375	60.1554	23.4375	55.954	23.4375	59.9996	23.4375	56.067	23.4375	59.7645	23.4375	56.2601	23.4375	59.4549	23.4375	56.5338	23.4375	59.0804	23.4375	56.8814	23.4375	58.6557	23.4375	57.2888	23.4375	58.2001	23.4375	57.7363
24.1699	60.3207	24.1699	60.2489	24.1699	60.4045	24.1699	60.1898	24.1699	60.4986	24.1699	60.1425	24.1699	60.6001	24.1699	60.1056	24.1699	60.7047	24.1699	60.0768	24.1699	60.8069	24.1699	60.0537	24.1699	60.9007	24.1699	60.0338	24.1699	60.9796	24.1699	60.015	24.1699	61.0371	24.1699	59.9963	24.1699	61.0678	24.1699	59.9776	24.1699	61.0673	24.1699	59.9605	24.1699	61.0337	24.1699	59.9481	24.1699	60.9674	24.1699	59.9449	24.1699	60.8717	24.1699	59.956	24.1699	60.7527	24.1699	59.9865	24.1699	60.6186	24.1699	60.0401	24.1699	60.479	24.1699	60.1187	24.1699	60.3436	24.1699	60.2212
25.6348	59.4925	25.6348	59.4586	25.6348	59.5524	25.6348	59.4512	25.6348	59.6371	25.6348	59.4697	25.6348	59.7441	25.6348	59.5128	25.6348	59.8698	25.6348	59.5787	25.6348	60.0095	25.6348	59.6648	25.6348	60.1578	25.6348	59.7682	25.6348	60.3084	25.6348	59.8855	25.6348	60.455	25.6348	60.0127	25.6348	60.5914	25.6348	60.1454	25.6348	60.7123	25.6348	60.2791	25.6348	60.8135	25.6348	60.4092	25.6348	60.8924	25.6348	60.5313	25.6348	60.9483	25.6348	60.6419	25.6348	60.982	25.6348	60.7384	25.6348	60.9954	25.6348	60.8194	25.6348	60.9909	25.6348	60.8848	25.6348	60.9704	25.6348	60.935
26.3672	63.8641	26.3672	63.8875	26.3672	63.8469	26.3672	63.9161	26.3672	63.8367	26.3672	63.9484	26.3672	63.8336	26.3672	63.9828	26.3672	63.8373	26.3672	64.0174	26.3672	63.8473	26.3672	64.0504	26.3672	63.8624	26.3672	64.0801	26.3672	63.8814	26.3672	64.1052	26.3672	63.9029	26.3672	64.1247	26.3672	63.9254	26.3672	64.1382	26.3672	63.948	26.3672	64.1458	26.3672	63.9696	26.3672	64.148	26.3672	63.99	26.3672	64.1457	26.3672	64.0091	26.3672	64.1396	26.3672	64.0271	26.3672	64.1306	26.3672	64.0443	26.3672	64.1193	26.3672	64.0608	26.3672	64.1063	26.3672	64.0768	26.3672	64.092
27.0996	63.4746	27.0996	63.5051	27.0996	63.451	27.0996	63.5418	27.0996	63.4348	27.0996	63.5836	27.0996	63.4262	27.0996	63.6291	27.0996	63.4246	27.0996	63.6767	27.0996	63.4294	27.0996	63.7248	27.0996	63.4398	27.0996	63.7716	27.0996	63.4547	27.0996	63.8155	27.0996	63.4732	27.0996	63.8548	27.0996	63.4947	27.0996	63.8881	27.0996	63.519	27.0996	63.9142	27.0996	63.5464	27.0996	63.9317	27.0996	63.5773	27.0996	63.9398	27.0996	63.6124	27.0996	63.9377	27.0996	63.6519	27.0996	63.9253	27.0996	63.6953	27.0996	63.9026	27.0996	63.7412	27.0996	63.8709	27.0996	63.7876	27.0996	63.8317
27.832	64.2308	27.832	64.2652	27.832	64.1981	27.832	64.3004	27.832	64.1677	27.832	64.3353	27.832	64.1403	27.832	64.3688	27.832	64.1161	27.832	64.3998	27.832	64.0955	27.832	64.427	27.832	64.0784	27.832	64.4494	27.832	64.0651	27.832	64.4662	27.832	64.0558	27.832	64.4767	27.832	64.0508	27.832	64.4803	27.832	64.0505	27.832	64.4769	27.832	64.0556	27.832	64.4662	27.832	64.067	27.832	64.4482	27.832	64.0852	27.832	64.4232	27.832	64.1105	27.832	64.3916	27.832	64.1428	27.832	64.3541	27.832	64.181	27.832	64.3123	27.832	64.2234	27.832	64.268
29.2969	66.2063	29.2969	66.2736	29.2969	66.1498	29.2969	66.3503	29.2969	66.1057	29.2969	66.4348	29.2969	66.0753	29.2969	66.5257	29.2969	66.06	29.2969	66.6215	29.2969	66.0608	29.2969	66.7208	29.2969	66.0786	29.2969	66.8219	29.2969	66.1138	29.2969	66.9229	29.2969	66.1665	29.2969	67.0218	29.2969	66.2365	29.2969	67.1158	29.2969	66.3227	29.2969	67.2016	29.2969	66.4239	29.2969	67.2753	29.2969	66.5379	29.2969	67.3326	29.2969	66.6617	29.2969	67.3691	29.2969	66.7912	29.2969	67.3811	29.2969	66.9213	29.2969	67.3659	29.2969	67.0458	29.2969	67.3224	29.2969	67.1581	29.2969	67.2521
30.0293	69.8526	30.0293	69.8891	30.0293	69.8241	30.0293	69.9324	30.0293	69.8046	30.0293	69.9808	30.0293	69.7948	30.0293	70.0329	30.0293	69.7949	30.0293	70.0867	30.0293	69.8051	30.0293	70.1401	30.0293	69.8248	30.0293	70.191	30.0293	69.853	30.0293	70.2374	30.0293	69.8885	30.0293	70.2773	30.0293	69.9296	30.0293	70.3092	30.0293	69.9742	30.0293	70.3322	30.0293	70.0205	30.0293	70.3459	30.0293	70.0665	30.0293	70.3508	30.0293	70.1106	30.0293	70.3477	30.0293	70.1518	30.0293	70.3378	30.0293	70.1893	30.0293	70.3226	30.0293	70.2231	30.0293	70.303	30.0293	70.2531	30.0293	70.2797
31.4941	70.7858	31.4941	70.8492	31.4941	70.7257	31.4941	70.9147	31.4941	70.6704	31.4941	70.9808	31.4941	70.6211	31.4941	71.0459	31.4941	70.5789	31.4941	71.1085	31.4941	70.545	31.4941	71.1667	31.4941	70.5205	31.4941	71.219	31.4941	70.5064	31.4941	71.2637	31.4941	70.5037	31.4941	71.2992	31.4941	70.5132	31.4941	71.3241	31.4941	70.5355	31.4941	71.337	31.4941	70.5709	31.4941	71.3371	31.4941	70.6189	31.4941	71.3236	31.4941	70.6785	31.4941	71.2965	31.4941	70.7478	31.4941	71.2559	31.4941	70.8245	31.4941	71.2028	31.4941	70.9054	31.4941	71.1387	31.4941	70.987	31.4941	71.0659
32.2266	71.7829	32.2266	71.8369	32.2266	71.7339	32.2266	71.8946	32.2266	71.6907	32.2266	71.9548	32.2266	71.6542	32.2266	72.0164	32.2266	71.6253	32.2266	72.0778	32.2266	71.6049	32.2266	72.1374	32.2266	71.5935	32.2266	72.1936	32.2266	71.592	32.2266	72.2444	32.2266	71.6008	32.2266	72.2882	32.2266	71.6204	32.2266	72.323	32.2266	71.651	32.2266	72.3473	32.2266	71.6924	32.2266	72.3597	32.2266	71.7439	32.2266	72.3591	32.2266	71.8045	32.2266	72.345	32.2266	71.8722	32.2266	72.3173	32.2266	71.9448	32.2266	72.2766	32.2266	72.0195	32.2266	72.2243	32.2266	72.093	32.2266	72.1623
33.6914	75.1399	33.6914	75.1348	33.6914	75.1512	33.6914	75.1362	33.6914	75.1685	33.6914	75.144	33.6914	75.1914	33.6914	75.1582	33.6914	75.2194	33.6914	75.1785	33.6914	75.2517	33.6914	75.2046	33.6914	75.2878	33.6914	75.236	33.6914	75.3266	33.6914	75.2721	33.6914	75.3673	33.6914	75.3119	33.6914	75.4088	33.6914	75.3545	33.6914	75.4501	33.6914	75.3987	33.6914	75.4898	33.6914	75.443	33.6914	75.5268	33.6914	75.486	33.6914	75.5598	33.6914	75.5258	33.6914	75.5875	33.6914	75.5609	33.6914	75.6086	33.6914	75.5897	33.6914	75.6222	33.6914	75.6109	33.6914	75.6273	33.6914	75.6236
34.4238	75.9674	34.4238	75.9738	34.4238	75.9662	34.4238	75.9851	34.4238	75.9703	34.4238	76.0013	34.4238	75.9796	34.4238	76.022	34.4238	75.994	34.4238	76.0471	34.4238	76.0135	34.4238	76.0759	34.4238	76.0378	34.4238	76.1082	34.4238	76.0665	34.4238	76.1432	34.4238	76.0993	34.4238	76.1804	34.4238	76.1355	34.4238	76.2188	34.4238	76.1743	34.4238	76.2573	34.4238	76.2146	34.4238	76.2947	34.4238	76.2551	34.4238	76.3295	34.4238	76.2943	34.4238	76.3602	34.4238	76.3305	34.4238	76.3852	34.4238	76.3619	34.4238	76.403	34.4238	76.387	34.4238	76.4125	34.4238	76.4044	34.4238	76.413
35.8887	78.1122	35.8887	78.1247	35.8887	78.1038	35.8887	78.1412	35.8887	78.0998	35.8887	78.1614	35.8887	78.1	35.8887	78.185	35.8887	78.1047	35.8887	78.2116	35.8887	78.1137	35.8887	78.2406	35.8887	78.127	35.8887	78.2715	35.8887	78.1444	35.8887	78.3035	35.8887	78.1659	35.8887	78.3355	35.8887	78.191	35.8887	78.3667	35.8887	78.2194	35.8887	78.3959	35.8887	78.2506	35.8887	78.4219	35.8887	78.2837	35.8887	78.4436	35.8887	78.3177	35.8887	78.4597	35.8887	78.3514	35.8887	78.4694	35.8887	78.3834	35.8887	78.4721	35.8887	78.4124	35.8887	78.4674	35.8887	78.4368	35.8887	78.4554
37.3535	80.4678	37.3535	80.4818	37.3535	80.4567	37.3535	80.4984	37.3535	80.4486	37.3535	80.5173	37.3535	80.4437	37.3535	80.5382	37.3535	80.4422	37.3535	80.5605	37.3535	80.444	37.3535	80.5839	37.3535	80.4492	37.3535	80.6076	37.3535	80.4579	37.3535	80.631	37.3535	80.4699	37.3535	80.6534	37.3535	80.4852	37.3535	80.674	37.3535	80.5037	37.3535	80.6921	37.3535	80.5249	37.3535	80.7067	37.3535	80.5486	37.3535	80.7173	37.3535	80.574	37.3535	80.7231	37.3535	80.6003	37.3535	80.7237	37.3535	80.6265	37.3535	80.7189	37.3535	80.6516	37.3535	80.7088	37.3535	80.6744	37.3535	80.6937
38.8184	82.4278	38.8184	82.44	38.8184	82.4172	38.8184	82.4535	38.8184	82.4084	38.8184	82.4681	38.8184	82.4015	38.8184	82.4836	38.8184	82.3969	38.8184	82.4997	38.8184	82.3948	38.8184	82.5161	38.8184	82.3953	38.8184	82.5326	38.8184	82.3988	38.8184	82.5486	38.8184	82.4054	38.8184	82.5639	38.8184	82.4153	38.8184	82.5779	38.8184	82.4283	38.8184	82.5901	38.8184	82.4444	38.8184	82.5999	38.8184	82.4631	38.8184	82.6069	38.8184	82.4837	38.8184	82.6104	38.8184	82.5056	38.8184	82.6101	38.8184	82.5276	38.8184	82.6056	38.8184	82.5487	38.8184	82.5969	38.8184	82.5679	38.8184	82.5842
39.5508	83.4232	39.5508	83.4364	39.5508	83.4109	39.5508	83.4504	39.5508	83.4001	39.5508	83.4649	39.5508	83.3909	39.5508	83.4794	39.5508	83.3837	39.5508	83.4937	39.5508	83.3789	39.5508	83.5075	39.5508	83.3766	39.5508	83.5204	39.5508	83.3772	39.5508	83.5322	39.5508	83.3808	39.5508	83.5425	39.5508	83.3876	39.5508	83.5512	39.5508	83.3975	39.5508	83.5578	39.5508	83.4103	39.5508	83.5622	39.5508	83.4256	39.5508	83.5641	39.5508	83.4429	39.5508	83.5633	39.5508	83.4613	39.5508	83.5596	39.5508	83.4801	39.5508	83.5529	39.5508	83.4985	39.5508	83.5432	39.5508	83.5156	39.5508	83.5306
41.0156	85.2879	41.0156	85.3171	41.0156	85.2568	41.0156	85.3442	41.0156	85.224	41.0156	85.3693	41.0156	85.1898	41.0156	85.3922	41.0156	85.1548	41.0156	85.4128	41.0156	85.1197	41.0156	85.4308	41.0156	85.0857	41.0156	85.446	41.0156	85.0541	41.0156	85.4577	41.0156	85.0266	41.0156	85.4653	41.0156	85.005	41.0156	85.4678	41.0156	84.9911	41.0156	85.4644	41.0156	84.9868	41.0156	85.4541	41.0156	84.9932	41.0156	85.4361	41.0156	85.0111	41.0156	85.4097	41.0156	85.0403	41.0156	85.3751	41.0156	85.0793	41.0156	85.3329	41.0156	85.1262	41.0156	85.2844	41.0156	85.1781	41.0156	85.2319
42.4805	87.722	42.4805	87.7158	42.4805	87.7279	42.4805	87.7096	42.4805	87.7333	42.4805	87.7034	42.4805	87.738	42.4805	87.6975	42.4805	87.7419	42.4805	87.692	42.4805	87.7448	42.4805	87.6871	42.4805	87.7466	42.4805	87.6828	42.4805	87.7472	42.4805	87.6794	42.4805	87.7466	42.4805	87.6769	42.4805	87.7448	42.4805	87.6755	42.4805	87.7419	42.4805	87.6752	42.4805	87.7381	42.4805	87.676	42.4805	87.7335	42.4805	87.678	42.4805	87.7284	42.4805	87.681	42.4805	87.7229	42.4805	87.6849	42.4805	87.7172	42.4805	87.6894	42.4805	87.7114	42.4805	87.6945	42.4805	87.7056	42.4805	87.7
43.9453	89.7137	43.9453	89.7078	43.9453	89.7189	43.9453	89.7014	43.9453	89.7231	43.9453	89.6946	43.9453	89.7262	43.9453	89.6878	43.9453	89.7281	43.9453	89.6811	43.9453	89.7286	43.9453	89.6748	43.9453	89.7279	43.9453	89.669	43.9453	89.7258	43.9453	89.6641	43.9453	89.7226	43.9453	89.66	43.9453	89.7184	43.9453	89.657	43.9453	89.7133	43.9453	89.6551	43.9453	89.7077	43.9453	89.6543	43.9453	89.7017	43.9453	89.6546	43.9453	89.6956	43.9453	89.6559	43.9453	89.6896	43.9453	89.6581	43.9453	89.6838	43.9453	89.661	43.9453	89.6784	43.9453	89.6646	43.9453	89.6733	43.9453	89.6687
45.4102	91.5076	45.4102	91.5024	45.4102	91.511	45.4102	91.4958	45.4102	91.5126	45.4102	91.4878	45.4102	91.5124	45.4102	91.4787	45.4102	91.5104	45.4102	91.4689	45.4102	91.5067	45.4102	91.4587	45.4102	91.5014	45.4102	91.4484	45.4102	91.4947	45.4102	91.4386	45.4102	91.487	45.4102	91.4294	45.4102	91.4785	45.4102	91.4214	45.4102	91.4696	45.4102	91.4148	45.4102	91.4606	45.4102	91.4098	45.4102	91.4518	45.4102	91.4064	45.4102	91.4434	45.4102	91.4048	45.4102	91.4356	45.4102	91.4047	45.4102	91.4286	45.4102	91.4061	45.4102	91.4223	45.4102	91.4087	45.4102	91.4169	45.4102	91.4123
47.6074	94.2087	47.6074	94.2036	47.6074	94.2117	47.6074	94.1966	47.6074	94.2125	47.6074	94.1879	47.6074	94.2112	47.6074	94.1777	47.6074	94.2077	47.6074	94.1665	47.6074	94.2021	47.6074	94.1545	47.6074	94.1947	47.6074	94.1422	47.6074	94.1857	47.6074	94.13	47.6074	94.1755	47.6074	94.1183	47.6074	94.1643	47.6074	94.1077	47.6074	94.1527	47.6074	94.0984	47.6074	94.141	47.6074	94.0907	47.6074	94.1296	47.6074	94.0848	47.6074	94.1189	47.6074	94.0808	47.6074	94.1092	47.6074	94.0788	47.6074	94.1006	47.6074	94.0785	47.6074	94.0934	47.6074	94.0799	47.6074	94.0874	47.6074	94.0829
49.0723	95.8913	49.0723	95.8853	49.0723	95.8947	49.0723	95.8769	49.0723	95.8954	49.0723	95.8662	49.0723	95.8934	49.0723	95.8536	49.0723	95.8887	49.0723	95.8395	49.0723	95.8816	49.0723	95.8244	49.0723	95.8723	49.0723	95.8087	49.0723	95.8611	49.0723	95.793	49.0723	95.8484	49.0723	95.778	49.0723	95.8347	49.0723	95.764	49.0723	95.8203	49.0723	95.7517	49.0723	95.8058	49.0723	95.7414	49.0723	95.7916	49.0723	95.7335	49.0723	95.7781	49.0723	95.7281	49.0723	95.7656	49.0723	95.7252	49.0723	95.7545	49.0723	95.7248	49.0723	95.7448	49.0723	95.7267	49.0723	95.7369	49.0723	95.7308
50.5371	97.446	50.5371	97.4397	50.5371	97.4492	50.5371	97.4306	50.5371	97.4493	50.5371	97.4188	50.5371	97.4463	50.5371	97.4048	50.5371	97.4403	50.5371	97.3891	50.5371	97.4316	50.5371	97.372	50.5371	97.4204	50.5371	97.3544	50.5371	97.4071	50.5371	97.3366	50.5371	97.3922	50.5371	97.3196	50.5371	97.3763	50.5371	97.3037	50.5371	97.3598	50.5371	97.2897	50.5371	97.3433	50.5371	97.2778	50.5371	97.3274	50.5371	97.2686	50.5371	97.3125	50.5371	97.2621	50.5371	97.2989	50.5371	97.2583	50.5371	97.2869	50.5371	97.2572	50.5371	97.2768	50.5371	97.2587	50.5371	97.2686	50.5371	97.2625
52.7344	99.5163	52.7344	99.5096	52.7344	99.5195	52.7344	99.4998	52.7344	99.5192	52.7344	99.487	52.7344	99.5155	52.7344	99.4717	52.7344	99.5085	52.7344	99.4544	52.7344	99.4985	52.7344	99.4358	52.7344	99.486	52.7344	99.4165	52.7344	99.4713	52.7344	99.3974	52.7344	99.4552	52.7344	99.379	52.7344	99.4381	52.7344	99.3622	52.7344	99.4206	52.7344	99.3475	52.7344	99.4035	52.7344	99.3354	52.7344	99.3871	52.7344	99.3261	52.7344	99.3719	52.7344	99.3197	52.7344	99.3582	52.7344	99.3163	52.7344	99.3463	52.7344	99.3156	52.7344	99.3361	52.7344	99.3175	52.7344	99.3279	52.7344	99.3216
54.1992	100.696	54.1992	100.689	54.1992	100.699	54.1992	100.678	54.1992	100.699	54.1992	100.664	54.1992	100.695	54.1992	100.647	54.1992	100.687	54.1992	100.628	54.1992	100.676	54.1992	100.608	54.1992	100.663	54.1992	100.587	54.1992	100.647	54.1992	100.566	54.1992	100.629	54.1992	100.546	54.1992	100.611	54.1992	100.528	54.1992	100.592	54.1992	100.512	54.1992	100.574	54.1992	100.499	54.1992	100.556	54.1992	100.49	54.1992	100.54	54.1992	100.483	54.1992	100.525	54.1992	100.48	54.1992	100.512	54.1992	100.479	54.1992	100.502	54.1992	100.481	54.1992	100.493	54.1992	100.486
56.3965	102.135	56.3965	102.13	56.3965	102.137	56.3965	102.12	56.3965	102.135	56.3965	102.107	56.3965	102.129	56.3965	102.09	56.3965	102.119	56.3965	102.072	56.3965	102.106	56.3965	102.051	56.3965	102.09	56.3965	102.03	56.3965	102.072	56.3965	102.009	56.3965	102.053	56.3965	101.989	56.3965	102.033	56.3965	101.971	56.3965	102.014	56.3965	101.955	56.3965	101.996	56.3965	101.942	56.3965	101.979	56.3965	101.932	56.3965	101.964	56.3965	101.924	56.3965	101.951	56.3965	101.92	56.3965	101.941	56.3965	101.918	56.3965	101.932	56.3965	101.919	56.3965	101.926	56.3965	101.921
