"SPL Horizontal"																																																																							
"On-Axis"		"10°"		"-10°"		"20°"		"-20°"		"30°"		"-30°"		"40°"		"-40°"		"50°"		"-50°"		"60°"		"-60°"		"70°"		"-70°"		"80°"		"-80°"		"90°"		"-90°"		"100°"		"-100°"		"110°"		"-110°"		"120°"		"-120°"		"130°"		"-130°"		"140°"		"-140°"		"150°"		"-150°"		"160°"		"-160°"		"170°"		"-170°"		"180°"	
"Frequency [Hz]"	"Sound Pessure Level [dB]  / [2.83V 1m] "	"Frequency [Hz]"	"Sound Pessure Level [dB]  / [2.83V 1m] "	"Frequency [Hz]"	"Sound Pessure Level [dB]  / [2.83V 1m] "	"Frequency [Hz]"	"Sound Pessure Level [dB]  / [2.83V 1m] "	"Frequency [Hz]"	"Sound Pessure Level [dB]  / [2.83V 1m] "	"Frequency [Hz]"	"Sound Pessure Level [dB]  / [2.83V 1m] "	"Frequency [Hz]"	"Sound Pessure Level [dB]  / [2.83V 1m] "	"Frequency [Hz]"	"Sound Pessure Level [dB]  / [2.83V 1m] "	"Frequency [Hz]"	"Sound Pessure Level [dB]  / [2.83V 1m] "	"Frequency [Hz]"	"Sound Pessure Level [dB]  / [2.83V 1m] "	"Frequency [Hz]"	"Sound Pessure Level [dB]  / [2.83V 1m] "	"Frequency [Hz]"	"Sound Pessure Level [dB]  / [2.83V 1m] "	"Frequency [Hz]"	"Sound Pessure Level [dB]  / [2.83V 1m] "	"Frequency [Hz]"	"Sound Pessure Level [dB]  / [2.83V 1m] "	"Frequency [Hz]"	"Sound Pessure Level [dB]  / [2.83V 1m] "	"Frequency [Hz]"	"Sound Pessure Level [dB]  / [2.83V 1m] "	"Frequency [Hz]"	"Sound Pessure Level [dB]  / [2.83V 1m] "	"Frequency [Hz]"	"Sound Pessure Level [dB]  / [2.83V 1m] "	"Frequency [Hz]"	"Sound Pessure Level [dB]  / [2.83V 1m] "	"Frequency [Hz]"	"Sound Pessure Level [dB]  / [2.83V 1m] "	"Frequency [Hz]"	"Sound Pessure Level [dB]  / [2.83V 1m] "	"Frequency [Hz]"	"Sound Pessure Level [dB]  / [2.83V 1m] "	"Frequency [Hz]"	"Sound Pessure Level [dB]  / [2.83V 1m] "	"Frequency [Hz]"	"Sound Pessure Level [dB]  / [2.83V 1m] "	"Frequency [Hz]"	"Sound Pessure Level [dB]  / [2.83V 1m] "	"Frequency [Hz]"	"Sound Pessure Level [dB]  / [2.83V 1m] "	"Frequency [Hz]"	"Sound Pessure Level [dB]  / [2.83V 1m] "	"Frequency [Hz]"	"Sound Pessure Level [dB]  / [2.83V 1m] "	"Frequency [Hz]"	"Sound Pessure Level [dB]  / [2.83V 1m] "	"Frequency [Hz]"	"Sound Pessure Level [dB]  / [2.83V 1m] "	"Frequency [Hz]"	"Sound Pessure Level [dB]  / [2.83V 1m] "	"Frequency [Hz]"	"Sound Pessure Level [dB]  / [2.83V 1m] "	"Frequency [Hz]"	"Sound Pessure Level [dB]  / [2.83V 1m] "	"Frequency [Hz]"	"Sound Pessure Level [dB]  / [2.83V 1m] "	"Frequency [Hz]"	"Sound Pessure Level [dB]  / [2.83V 1m] "	"Frequency [Hz]"	"Sound Pessure Level [dB]  / [2.83V 1m] "
20.5078	74.4702	20.5078	74.6054	20.5078	74.3835	20.5078	74.7881	20.5078	74.3469	20.5078	75.0168	20.5078	74.3616	20.5078	75.2902	20.5078	74.4289	20.5078	75.6063	20.5078	74.5501	20.5078	75.9626	20.5078	74.7265	20.5078	76.3554	20.5078	74.9588	20.5078	76.7786	20.5078	75.2471	20.5078	77.2237	20.5078	75.5904	20.5078	77.6782	20.5078	75.9854	20.5078	78.126	20.5078	76.4261	20.5078	78.547	20.5078	76.902	20.5078	78.9191	20.5078	77.3978	20.5078	79.2196	20.5078	77.8933	20.5078	79.4282	20.5078	78.3642	20.5078	79.5288	20.5078	78.7844	20.5078	79.5119	20.5078	79.1289	20.5078	79.3763
21.9727	72.6276	21.9727	72.7782	21.9727	72.5306	21.9727	72.9811	21.9727	72.4882	21.9727	73.2348	21.9727	72.5011	21.9727	73.537	21.9727	72.5697	21.9727	73.8849	21.9727	72.6944	21.9727	74.2747	21.9727	72.8755	21.9727	74.7012	21.9727	73.1137	21.9727	75.157	21.9727	73.4094	21.9727	75.6322	21.9727	73.7627	21.9727	76.1134	21.9727	74.1725	21.9727	76.5839	21.9727	74.6345	21.9727	77.0232	21.9727	75.1396	21.9727	77.4089	21.9727	75.6721	21.9727	77.718	21.9727	76.2095	21.9727	77.9293	21.9727	76.7241	21.9727	78.026	21.9727	77.1858	21.9727	77.9976	21.9727	77.5662	21.9727	77.8421
23.4375	68.179	23.4375	68.1811	23.4375	68.203	23.4375	68.2109	23.4375	68.2509	23.4375	68.27	23.4375	68.3199	23.4375	68.3592	23.4375	68.4071	23.4375	68.4796	23.4375	68.509	23.4375	68.6314	23.4375	68.6221	23.4375	68.8148	23.4375	68.7434	23.4375	69.0291	23.4375	68.871	23.4375	69.2718	23.4375	69.0047	23.4375	69.5381	23.4375	69.1473	23.4375	69.8192	23.4375	69.3037	23.4375	70.1015	23.4375	69.4805	23.4375	70.3667	23.4375	69.6827	23.4375	70.5932	23.4375	69.9097	23.4375	70.7596	23.4375	70.1526	23.4375	70.8485	23.4375	70.393	23.4375	70.8501	23.4375	70.6058	23.4375	70.7652
24.9023	63.1347	24.9023	63.1066	24.9023	63.1607	24.9023	63.08	24.9023	63.1814	24.9023	63.0593	24.9023	63.1939	24.9023	63.0495	24.9023	63.1956	24.9023	63.0566	24.9023	63.1848	24.9023	63.0871	24.9023	63.1606	24.9023	63.1477	24.9023	63.1241	24.9023	63.2439	24.9023	63.0793	24.9023	63.3778	24.9023	63.0341	24.9023	63.5463	24.9023	63.0004	24.9023	63.7391	24.9023	62.9941	24.9023	63.9394	24.9023	63.0316	24.9023	64.1248	24.9023	63.1257	24.9023	64.2716	24.9023	63.2799	24.9023	64.3581	24.9023	63.4849	24.9023	64.3694	24.9023	63.7192	24.9023	64.2999	24.9023	63.9531	24.9023	64.1554
26.3672	58.5619	26.3672	59.1523	26.3672	58.1161	26.3672	59.892	26.3672	57.8117	26.3672	60.7763	26.3672	57.6595	26.3672	61.7853	26.3672	57.6922	26.3672	62.8871	26.3672	57.96	26.3672	64.0434	26.3672	58.5091	26.3672	65.216	26.3672	59.3515	26.3672	66.3695	26.3672	60.4492	26.3672	67.4731	26.3672	61.7273	26.3672	68.4991	26.3672	63.1012	26.3672	69.4226	26.3672	64.4969	26.3672	70.2206	26.3672	65.8567	26.3672	70.8718	26.3672	67.1376	26.3672	71.3575	26.3672	68.306	26.3672	71.6616	26.3672	69.3351	26.3672	71.772	26.3672	70.2026	26.3672	71.681	26.3672	70.8908	26.3672	71.3863
27.832	73.627	27.832	73.7025	27.832	73.5928	27.832	73.8254	27.832	73.5955	27.832	74.0031	27.832	73.633	27.832	74.2429	27.832	73.7057	27.832	74.5504	27.832	73.8164	27.832	74.9279	27.832	73.9697	27.832	75.3722	27.832	74.1716	27.832	75.8737	27.832	74.4286	27.832	76.4158	27.832	74.7463	27.832	76.9756	27.832	75.1278	27.832	77.5257	27.832	75.5715	27.832	78.0362	27.832	76.0695	27.832	78.4773	27.832	76.606	27.832	78.8221	27.832	77.158	27.832	79.0486	27.832	77.6961	27.832	79.142	27.832	78.1881	27.832	79.0955	27.832	78.6024	27.832	78.9117
29.2969	79.0516	29.2969	79.1381	29.2969	79.0023	29.2969	79.2649	29.2969	78.9881	29.2969	79.4355	29.2969	79.0079	29.2969	79.6533	29.2969	79.0618	29.2969	79.9207	29.2969	79.1509	29.2969	80.2384	29.2969	79.2776	29.2969	80.6042	29.2969	79.4448	29.2969	81.0116	29.2969	79.6558	29.2969	81.4493	29.2969	79.9138	29.2969	81.901	29.2969	80.2209	29.2969	82.3456	29.2969	80.5767	29.2969	82.7587	29.2969	80.9772	29.2969	83.1149	29.2969	81.4128	29.2969	83.39	29.2969	81.8676	29.2969	83.5642	29.2969	82.3195	29.2969	83.6239	29.2969	82.7416	29.2969	83.5636	29.2969	83.106	29.2969	83.3868
30.7617	81.2113	30.7617	81.299	30.7617	81.1583	30.7617	81.4232	30.7617	81.1387	30.7617	81.5862	30.7617	81.1519	30.7617	81.7901	30.7617	81.1983	30.7617	82.0366	30.7617	81.2789	30.7617	82.326	30.7617	81.3956	30.7617	82.6567	30.7617	81.5509	30.7617	83.0238	30.7617	81.7474	30.7617	83.4185	30.7617	81.9878	30.7617	83.8273	30.7617	82.2737	30.7617	84.2321	30.7617	82.6046	30.7617	84.6111	30.7617	82.9767	30.7617	84.9406	30.7617	83.3812	30.7617	85.1977	30.7617	83.8031	30.7617	85.3628	30.7617	84.222	30.7617	85.4222	30.7617	84.6131	30.7617	85.3699	30.7617	84.9501	30.7617	85.2087
32.2266	82.3757	32.2266	82.4607	32.2266	82.3231	32.2266	82.5788	32.2266	82.302	32.2266	82.7313	32.2266	82.3124	32.2266	82.9192	32.2266	82.3546	32.2266	83.1435	32.2266	82.4292	32.2266	83.4039	32.2266	82.5376	32.2266	83.6991	32.2266	82.6812	32.2266	84.0251	32.2266	82.8618	32.2266	84.3748	32.2266	83.0809	32.2266	84.737	32.2266	83.3395	32.2266	85.0962	32.2266	83.6368	32.2266	85.4333	32.2266	83.9693	32.2266	85.7272	32.2266	84.3295	32.2266	85.9569	32.2266	84.7051	32.2266	86.1043	32.2266	85.0784	32.2266	86.1566	32.2266	85.4277	32.2266	86.1085	32.2266	85.7298	32.2266	85.9626
33.6914	83.1719	33.6914	83.2433	33.6914	83.124	33.6914	83.3388	33.6914	83.0993	33.6914	83.4593	33.6914	83.0977	33.6914	83.6056	33.6914	83.1195	33.6914	83.7786	33.6914	83.1654	33.6914	83.9788	33.6914	83.2366	33.6914	84.2056	33.6914	83.3346	33.6914	84.457	33.6914	83.4613	33.6914	84.7282	33.6914	83.6187	33.6914	85.0111	33.6914	83.8084	33.6914	85.2937	33.6914	84.0312	33.6914	85.5601	33.6914	84.2857	33.6914	85.7924	33.6914	84.5675	33.6914	85.9721	33.6914	84.8677	33.6914	86.0831	33.6914	85.1727	33.6914	86.1142	33.6914	85.4643	33.6914	86.061	33.6914	85.7224	33.6914	85.9268
35.1563	85.6038	35.1563	85.6575	35.1563	85.5658	35.1563	85.7277	35.1563	85.5433	35.1563	85.8154	35.1563	85.5361	35.1563	85.9217	35.1563	85.5445	35.1563	86.048	35.1563	85.5693	35.1563	86.1958	35.1563	85.6115	35.1563	86.3658	35.1563	85.6726	35.1563	86.5578	35.1563	85.7546	35.1563	86.7693	35.1563	85.8602	35.1563	86.9948	35.1563	85.9917	35.1563	87.2246	35.1563	86.1517	35.1563	87.4451	35.1563	86.3414	35.1563	87.6396	35.1563	86.5593	35.1563	87.7901	35.1563	86.8003	35.1563	87.8809	35.1563	87.0539	35.1563	87.9008	35.1563	87.3046	35.1563	87.8456	35.1563	87.533	35.1563	87.7191
36.6211	89.719	36.6211	89.7736	36.6211	89.6805	36.6211	89.8447	36.6211	89.6577	36.6211	89.9333	36.6211	89.6507	36.6211	90.0406	36.6211	89.6597	36.6211	90.168	36.6211	89.6853	36.6211	90.3173	36.6211	89.7284	36.6211	90.49	36.6211	89.7903	36.6211	90.6865	36.6211	89.8728	36.6211	90.9053	36.6211	89.9782	36.6211	91.1416	36.6211	90.1093	36.6211	91.3859	36.6211	90.2688	36.6211	91.6236	36.6211	90.4591	36.6211	91.8358	36.6211	90.6804	36.6211	92.0018	36.6211	90.929	36.6211	92.1024	36.6211	91.1957	36.6211	92.1239	36.6211	91.4644	36.6211	92.0613	36.6211	91.7137	36.6211	91.9197
38.0859	93.1069	38.0859	93.1578	38.0859	93.0723	38.0859	93.2255	38.0859	93.054	38.0859	93.3107	38.0859	93.0518	38.0859	93.4142	38.0859	93.0659	38.0859	93.5371	38.0859	93.0966	38.0859	93.6809	38.0859	93.1444	38.0859	93.8469	38.0859	93.21	38.0859	94.0354	38.0859	93.2949	38.0859	94.2452	38.0859	93.4008	38.0859	94.472	38.0859	93.5299	38.0859	94.707	38.0859	93.6847	38.0859	94.9366	38.0859	93.8673	38.0859	95.1429	38.0859	94.078	38.0859	95.3059	38.0859	94.3136	38.0859	95.4068	38.0859	94.5655	38.0859	95.4323	38.0859	94.8189	38.0859	95.3772	38.0859	95.0533	38.0859	95.2462
39.5508	96.1424	39.5508	96.1949	39.5508	96.1068	39.5508	96.2641	39.5508	96.0879	39.5508	96.3503	39.5508	96.0858	39.5508	96.4538	39.5508	96.1004	39.5508	96.5751	39.5508	96.1319	39.5508	96.7149	39.5508	96.1801	39.5508	96.8736	39.5508	96.2455	39.5508	97.0513	39.5508	96.3284	39.5508	97.2465	39.5508	96.43	39.5508	97.4553	39.5508	96.5518	39.5508	97.6697	39.5508	96.6955	39.5508	97.8778	39.5508	96.863	39.5508	98.0633	39.5508	97.0551	39.5508	98.208	39.5508	97.2694	39.5508	98.2952	39.5508	97.4993	39.5508	98.3126	39.5508	97.732	39.5508	98.256	39.5508	97.9492	39.5508	98.1303
41.0156	98.7769	41.0156	98.8311	41.0156	98.7392	41.0156	98.9012	41.0156	98.718	41.0156	98.9872	41.0156	98.7136	41.0156	99.0885	41.0156	98.7257	41.0156	99.2052	41.0156	98.7544	41.0156	99.3372	41.0156	98.7994	41.0156	99.4844	41.0156	98.8604	41.0156	99.6463	41.0156	98.9375	41.0156	99.8215	41.0156	99.0312	41.0156	100.007	41.0156	99.1421	41.0156	100.195	41.0156	99.2717	41.0156	100.376	41.0156	99.4215	41.0156	100.536	41.0156	99.5923	41.0156	100.659	41.0156	99.7828	41.0156	100.729	41.0156	99.9878	41.0156	100.738	41.0156	100.197	41.0156	100.68	41.0156	100.394	41.0156	100.561
42.4805	100.952	42.4805	101.006	42.4805	100.913	42.4805	101.076	42.4805	100.891	42.4805	101.161	42.4805	100.886	42.4805	101.26	42.4805	100.898	42.4805	101.373	42.4805	100.926	42.4805	101.498	42.4805	100.969	42.4805	101.635	42.4805	101.029	42.4805	101.783	42.4805	101.102	42.4805	101.94	42.4805	101.19	42.4805	102.104	42.4805	101.293	42.4805	102.269	42.4805	101.411	42.4805	102.426	42.4805	101.545	42.4805	102.563	42.4805	101.697	42.4805	102.666	42.4805	101.865	42.4805	102.723	42.4805	102.046	42.4805	102.725	42.4805	102.231	42.4805	102.668	42.4805	102.407	42.4805	102.558
43.9453	102.735	43.9453	102.791	43.9453	102.694	43.9453	102.859	43.9453	102.667	43.9453	102.939	43.9453	102.654	43.9453	103.03	43.9453	102.657	43.9453	103.13	43.9453	102.675	43.9453	103.238	43.9453	102.706	43.9453	103.354	43.9453	102.751	43.9453	103.475	43.9453	102.809	43.9453	103.602	43.9453	102.878	43.9453	103.732	43.9453	102.959	43.9453	103.861	43.9453	103.053	43.9453	103.981	43.9453	103.161	43.9453	104.083	43.9453	103.283	43.9453	104.157	43.9453	103.42	43.9453	104.191	43.9453	103.57	43.9453	104.179	43.9453	103.727	43.9453	104.119	43.9453	103.88	43.9453	104.016
45.4102	104.02	45.4102	104.074	45.4102	103.98	45.4102	104.139	45.4102	103.953	45.4102	104.216	45.4102	103.941	45.4102	104.302	45.4102	103.944	45.4102	104.396	45.4102	103.96	45.4102	104.497	45.4102	103.989	45.4102	104.603	45.4102	104.031	45.4102	104.714	45.4102	104.085	45.4102	104.828	45.4102	104.149	45.4102	104.942	45.4102	104.224	45.4102	105.055	45.4102	104.309	45.4102	105.158	45.4102	104.405	45.4102	105.246	45.4102	104.514	45.4102	105.307	45.4102	104.635	45.4102	105.334	45.4102	104.768	45.4102	105.319	45.4102	104.908	45.4102	105.262	45.4102	105.045	45.4102	105.167
46.875	105.009	46.875	105.061	46.875	104.97	46.875	105.126	46.875	104.946	46.875	105.202	46.875	104.937	46.875	105.287	46.875	104.943	46.875	105.379	46.875	104.964	46.875	105.478	46.875	104.998	46.875	105.58	46.875	105.044	46.875	105.685	46.875	105.102	46.875	105.791	46.875	105.17	46.875	105.897	46.875	105.246	46.875	105.998	46.875	105.33	46.875	106.092	46.875	105.423	46.875	106.17	46.875	105.525	46.875	106.225	46.875	105.635	46.875	106.249	46.875	105.754	46.875	106.236	46.875	105.877	46.875	106.187	46.875	105.997	46.875	106.104
48.3398	105.788	48.3398	105.838	48.3398	105.751	48.3398	105.9	48.3398	105.729	48.3398	105.973	48.3398	105.721	48.3398	106.054	48.3398	105.729	48.3398	106.142	48.3398	105.75	48.3398	106.233	48.3398	105.785	48.3398	106.328	48.3398	105.832	48.3398	106.423	48.3398	105.889	48.3398	106.517	48.3398	105.954	48.3398	106.608	48.3398	106.026	48.3398	106.695	48.3398	106.104	48.3398	106.773	48.3398	106.187	48.3398	106.838	48.3398	106.276	48.3398	106.882	48.3398	106.371	48.3398	106.899	48.3398	106.471	48.3398	106.886	48.3398	106.575	48.3398	106.841	48.3398	106.677	48.3398	106.769
51.2695	106.789	51.2695	106.838	51.2695	106.752	51.2695	106.898	51.2695	106.729	51.2695	106.966	51.2695	106.721	51.2695	107.042	51.2695	106.727	51.2695	107.121	51.2695	106.748	51.2695	107.202	51.2695	106.781	51.2695	107.281	51.2695	106.826	51.2695	107.359	51.2695	106.88	51.2695	107.431	51.2695	106.941	51.2695	107.498	51.2695	107.006	51.2695	107.559	51.2695	107.074	51.2695	107.61	51.2695	107.143	51.2695	107.65	51.2695	107.214	51.2695	107.675	51.2695	107.285	51.2695	107.68	51.2695	107.358	51.2695	107.664	51.2695	107.432	51.2695	107.627	51.2695	107.505	51.2695	107.572
52.7344	107.093	52.7344	107.143	52.7344	107.055	52.7344	107.204	52.7344	107.03	52.7344	107.272	52.7344	107.02	52.7344	107.346	52.7344	107.024	52.7344	107.423	52.7344	107.042	52.7344	107.499	52.7344	107.073	52.7344	107.574	52.7344	107.115	52.7344	107.643	52.7344	107.166	52.7344	107.706	52.7344	107.223	52.7344	107.762	52.7344	107.284	52.7344	107.81	52.7344	107.347	52.7344	107.847	52.7344	107.409	52.7344	107.873	52.7344	107.47	52.7344	107.886	52.7344	107.531	52.7344	107.882	52.7344	107.593	52.7344	107.862	52.7344	107.655	52.7344	107.825	52.7344	107.716	52.7344	107.774
54.1992	107.347	54.1992	107.394	54.1992	107.311	54.1992	107.45	54.1992	107.287	54.1992	107.513	54.1992	107.276	54.1992	107.58	54.1992	107.279	54.1992	107.649	54.1992	107.295	54.1992	107.716	54.1992	107.322	54.1992	107.78	54.1992	107.359	54.1992	107.838	54.1992	107.405	54.1992	107.888	54.1992	107.455	54.1992	107.929	54.1992	107.508	54.1992	107.962	54.1992	107.56	54.1992	107.985	54.1992	107.611	54.1992	107.997	54.1992	107.659	54.1992	107.999	54.1992	107.705	54.1992	107.989	54.1992	107.751	54.1992	107.966	54.1992	107.797	54.1992	107.932	54.1992	107.844	54.1992	107.89
55.6641	107.566	55.6641	107.613	55.6641	107.53	55.6641	107.668	55.6641	107.506	55.6641	107.73	55.6641	107.495	55.6641	107.796	55.6641	107.497	55.6641	107.862	55.6641	107.513	55.6641	107.926	55.6641	107.54	55.6641	107.985	55.6641	107.577	55.6641	108.037	55.6641	107.623	55.6641	108.081	55.6641	107.673	55.6641	108.114	55.6641	107.724	55.6641	108.137	55.6641	107.775	55.6641	108.15	55.6641	107.822	55.6641	108.154	55.6641	107.864	55.6641	108.147	55.6641	107.902	55.6641	108.132	55.6641	107.937	55.6641	108.108	55.6641	107.972	55.6641	108.077	55.6641	108.007	55.6641	108.043
58.5938	108.014	58.5938	108.06	58.5938	107.978	58.5938	108.113	58.5938	107.952	58.5938	108.171	58.5938	107.938	58.5938	108.231	58.5938	107.937	58.5938	108.29	58.5938	107.947	58.5938	108.344	58.5938	107.969	58.5938	108.391	58.5938	107.999	58.5938	108.427	58.5938	108.036	58.5938	108.451	58.5938	108.076	58.5938	108.462	58.5938	108.115	58.5938	108.46	58.5938	108.151	58.5938	108.447	58.5938	108.181	58.5938	108.425	58.5938	108.204	58.5938	108.397	58.5938	108.219	58.5938	108.365	58.5938	108.231	58.5938	108.332	58.5938	108.241	58.5938	108.301	58.5938	108.255	58.5938	108.275
60.0586	108.124	60.0586	108.17	60.0586	108.088	60.0586	108.222	60.0586	108.063	60.0586	108.28	60.0586	108.05	60.0586	108.339	60.0586	108.05	60.0586	108.396	60.0586	108.061	60.0586	108.448	60.0586	108.084	60.0586	108.492	60.0586	108.115	60.0586	108.525	60.0586	108.153	60.0586	108.545	60.0586	108.194	60.0586	108.551	60.0586	108.235	60.0586	108.544	60.0586	108.271	60.0586	108.526	60.0586	108.3	60.0586	108.5	60.0586	108.321	60.0586	108.469	60.0586	108.333	60.0586	108.436	60.0586	108.338	60.0586	108.405	60.0586	108.342	60.0586	108.379	60.0586	108.347	60.0586	108.359
62.9883	108.221	62.9883	108.267	62.9883	108.184	62.9883	108.319	62.9883	108.158	62.9883	108.375	62.9883	108.144	62.9883	108.432	62.9883	108.143	62.9883	108.486	62.9883	108.153	62.9883	108.535	62.9883	108.176	62.9883	108.574	62.9883	108.207	62.9883	108.6	62.9883	108.246	62.9883	108.613	62.9883	108.287	62.9883	108.609	62.9883	108.328	62.9883	108.592	62.9883	108.364	62.9883	108.562	62.9883	108.391	62.9883	108.524	62.9883	108.407	62.9883	108.484	62.9883	108.411	62.9883	108.446	62.9883	108.406	62.9883	108.415	62.9883	108.396	62.9883	108.395	62.9883	108.388	62.9883	108.386
64.4531	108.243	64.4531	108.288	64.4531	108.207	64.4531	108.338	64.4531	108.181	64.4531	108.391	64.4531	108.166	64.4531	108.445	64.4531	108.163	64.4531	108.495	64.4531	108.172	64.4531	108.539	64.4531	108.193	64.4531	108.572	64.4531	108.222	64.4531	108.592	64.4531	108.259	64.4531	108.597	64.4531	108.298	64.4531	108.586	64.4531	108.337	64.4531	108.56	64.4531	108.37	64.4531	108.523	64.4531	108.393	64.4531	108.478	64.4531	108.404	64.4531	108.432	64.4531	108.401	64.4531	108.39	64.4531	108.388	64.4531	108.36	64.4531	108.369	64.4531	108.343	64.4531	108.351	64.4531	108.341
67.3828	108.36	67.3828	108.401	67.3828	108.324	67.3828	108.447	67.3828	108.296	67.3828	108.493	67.3828	108.278	67.3828	108.538	67.3828	108.27	67.3828	108.578	67.3828	108.272	67.3828	108.609	67.3828	108.285	67.3828	108.629	67.3828	108.307	67.3828	108.634	67.3828	108.335	67.3828	108.622	67.3828	108.367	67.3828	108.594	67.3828	108.396	67.3828	108.549	67.3828	108.42	67.3828	108.494	67.3828	108.433	67.3828	108.433	67.3828	108.432	67.3828	108.374	67.3828	108.417	67.3828	108.325	67.3828	108.388	67.3828	108.293	67.3828	108.352	67.3828	108.281	67.3828	108.317	67.3828	108.291
68.8477	108.465	68.8477	108.505	68.8477	108.429	68.8477	108.548	68.8477	108.401	68.8477	108.591	68.8477	108.381	68.8477	108.632	68.8477	108.37	68.8477	108.666	68.8477	108.369	68.8477	108.692	68.8477	108.378	68.8477	108.705	68.8477	108.395	68.8477	108.702	68.8477	108.418	68.8477	108.682	68.8477	108.443	68.8477	108.644	68.8477	108.466	68.8477	108.591	68.8477	108.483	68.8477	108.525	68.8477	108.489	68.8477	108.455	68.8477	108.48	68.8477	108.388	68.8477	108.456	68.8477	108.334	68.8477	108.419	68.8477	108.299	68.8477	108.375	68.8477	108.288	68.8477	108.332	68.8477	108.3
