"SPL Vertical"																																																																							
"On-Axis"		"10°"		"-10°"		"20°"		"-20°"		"30°"		"-30°"		"40°"		"-40°"		"50°"		"-50°"		"60°"		"-60°"		"70°"		"-70°"		"80°"		"-80°"		"90°"		"-90°"		"100°"		"-100°"		"110°"		"-110°"		"120°"		"-120°"		"130°"		"-130°"		"140°"		"-140°"		"150°"		"-150°"		"160°"		"-160°"		"170°"		"-170°"		"180°"	
"Frequency [Hz]"	"Sound Pessure Level [dB]  / [2.83V 1m] "	"Frequency [Hz]"	"Sound Pessure Level [dB]  / [2.83V 1m] "	"Frequency [Hz]"	"Sound Pessure Level [dB]  / [2.83V 1m] "	"Frequency [Hz]"	"Sound Pessure Level [dB]  / [2.83V 1m] "	"Frequency [Hz]"	"Sound Pessure Level [dB]  / [2.83V 1m] "	"Frequency [Hz]"	"Sound Pessure Level [dB]  / [2.83V 1m] "	"Frequency [Hz]"	"Sound Pessure Level [dB]  / [2.83V 1m] "	"Frequency [Hz]"	"Sound Pessure Level [dB]  / [2.83V 1m] "	"Frequency [Hz]"	"Sound Pessure Level [dB]  / [2.83V 1m] "	"Frequency [Hz]"	"Sound Pessure Level [dB]  / [2.83V 1m] "	"Frequency [Hz]"	"Sound Pessure Level [dB]  / [2.83V 1m] "	"Frequency [Hz]"	"Sound Pessure Level [dB]  / [2.83V 1m] "	"Frequency [Hz]"	"Sound Pessure Level [dB]  / [2.83V 1m] "	"Frequency [Hz]"	"Sound Pessure Level [dB]  / [2.83V 1m] "	"Frequency [Hz]"	"Sound Pessure Level [dB]  / [2.83V 1m] "	"Frequency [Hz]"	"Sound Pessure Level [dB]  / [2.83V 1m] "	"Frequency [Hz]"	"Sound Pessure Level [dB]  / [2.83V 1m] "	"Frequency [Hz]"	"Sound Pessure Level [dB]  / [2.83V 1m] "	"Frequency [Hz]"	"Sound Pessure Level [dB]  / [2.83V 1m] "	"Frequency [Hz]"	"Sound Pessure Level [dB]  / [2.83V 1m] "	"Frequency [Hz]"	"Sound Pessure Level [dB]  / [2.83V 1m] "	"Frequency [Hz]"	"Sound Pessure Level [dB]  / [2.83V 1m] "	"Frequency [Hz]"	"Sound Pessure Level [dB]  / [2.83V 1m] "	"Frequency [Hz]"	"Sound Pessure Level [dB]  / [2.83V 1m] "	"Frequency [Hz]"	"Sound Pessure Level [dB]  / [2.83V 1m] "	"Frequency [Hz]"	"Sound Pessure Level [dB]  / [2.83V 1m] "	"Frequency [Hz]"	"Sound Pessure Level [dB]  / [2.83V 1m] "	"Frequency [Hz]"	"Sound Pessure Level [dB]  / [2.83V 1m] "	"Frequency [Hz]"	"Sound Pessure Level [dB]  / [2.83V 1m] "	"Frequency [Hz]"	"Sound Pessure Level [dB]  / [2.83V 1m] "	"Frequency [Hz]"	"Sound Pessure Level [dB]  / [2.83V 1m] "	"Frequency [Hz]"	"Sound Pessure Level [dB]  / [2.83V 1m] "	"Frequency [Hz]"	"Sound Pessure Level [dB]  / [2.83V 1m] "	"Frequency [Hz]"	"Sound Pessure Level [dB]  / [2.83V 1m] "	"Frequency [Hz]"	"Sound Pessure Level [dB]  / [2.83V 1m] "	"Frequency [Hz]"	"Sound Pessure Level [dB]  / [2.83V 1m] "
20.5078	48.2797	20.5078	46.9817	20.5078	49.1793	20.5078	45.227	20.5078	49.7226	20.5078	43.044	20.5078	49.9231	20.5078	41.0868	20.5078	49.7643	20.5078	41.3063	20.5078	49.1936	20.5078	43.7845	20.5078	48.1068	20.5078	46.5617	20.5078	46.3139	20.5078	48.9447	20.5078	43.5141	20.5078	50.9073	20.5078	39.9893	20.5078	52.523	20.5078	40.7687	20.5078	53.8554	20.5078	45.2884	20.5078	54.9473	20.5078	48.9381	20.5078	55.8246	20.5078	51.594	20.5078	56.5004	20.5078	53.5501	20.5078	56.9785	20.5078	54.9921	20.5078	57.2549	20.5078	56.0306	20.5078	57.319	20.5078	56.7355	20.5078	57.1539
21.9727	53.2011	21.9727	52.3421	21.9727	53.8047	21.9727	51.1936	21.9727	54.1692	21.9727	49.7026	21.9727	54.2952	21.9727	47.8093	21.9727	54.1688	21.9727	45.5519	21.9727	53.759	21.9727	43.5623	21.9727	53.0131	21.9727	43.6071	21.9727	51.8479	21.9727	45.8007	21.9727	50.1372	21.9727	48.353	21.9727	47.7377	21.9727	50.5511	21.9727	44.8974	21.9727	52.3365	21.9727	44.0932	21.9727	53.7651	21.9727	46.8517	21.9727	54.8895	21.9727	49.9583	21.9727	55.7438	21.9727	52.3531	21.9727	56.3457	21.9727	54.097	21.9727	56.6993	21.9727	55.3291	21.9727	56.7979	21.9727	56.1494	21.9727	56.6243
23.4375	51.7933	23.4375	50.6894	23.4375	52.5523	23.4375	49.2013	23.4375	52.9928	23.4375	47.3306	23.4375	53.1192	23.4375	45.3817	23.4375	52.9121	23.4375	44.5818	23.4375	52.3226	23.4375	46.0394	23.4375	51.2623	23.4375	48.5463	23.4375	49.5883	23.4375	50.95	23.4375	47.1459	23.4375	52.9906	23.4375	44.451	23.4375	54.6837	23.4375	44.8803	23.4375	56.0816	23.4375	48.4421	23.4375	57.2271	23.4375	51.7454	23.4375	58.1481	23.4375	54.2633	23.4375	58.8601	23.4375	56.1479	23.4375	59.369	23.4375	57.5443	23.4375	59.6723	23.4375	58.5492	23.4375	59.7611	23.4375	59.2264	23.4375	59.6199
24.9023	53.1599	24.9023	52.1688	24.9023	53.8517	24.9023	50.8782	24.9023	54.2522	24.9023	49.3634	24.9023	54.3585	24.9023	47.9753	24.9023	54.1508	24.9023	47.5609	24.9023	53.5884	24.9023	48.6858	24.9023	52.6074	24.9023	50.6769	24.9023	51.1344	24.9023	52.7438	24.9023	49.2111	24.9023	54.5928	24.9023	47.6058	24.9023	56.1745	24.9023	48.2843	24.9023	57.5048	24.9023	50.9446	24.9023	58.6075	24.9023	53.6841	24.9023	59.5011	24.9023	55.9251	24.9023	60.1958	24.9023	57.6639	24.9023	60.6948	24.9023	58.977	24.9023	60.9945	24.9023	59.9318	24.9023	61.0858	24.9023	60.5785	24.9023	60.954
26.3672	55.3563	26.3672	54.5975	26.3672	55.902	26.3672	53.6632	26.3672	56.2186	26.3672	52.6575	26.3672	56.2934	26.3672	51.8254	26.3672	56.1089	26.3672	51.5661	26.3672	55.6436	26.3672	52.1556	26.3672	54.8803	26.3672	53.4184	26.3672	53.8454	26.3672	54.9525	26.3672	52.7272	26.3672	56.476	26.3672	52.0903	26.3672	57.8655	26.3672	52.6644	26.3672	59.0814	26.3672	54.3196	26.3672	60.1157	26.3672	56.2776	26.3672	60.9695	26.3672	58.0637	26.3672	61.6436	26.3672	59.5384	26.3672	62.1361	26.3672	60.6901	26.3672	62.4413	26.3672	61.541	26.3672	62.5496	26.3672	62.1186	26.3672	62.4478
27.832	56.6493	27.832	55.9469	27.832	57.1615	27.832	55.0978	27.832	57.4639	27.832	54.2071	27.832	57.5428	27.832	53.4953	27.832	57.3836	27.832	53.2913	27.832	56.9721	27.832	53.8151	27.832	56.305	27.832	54.9408	27.832	55.4277	27.832	56.344	27.832	54.5289	27.832	57.7708	27.832	54.0662	27.832	59.0943	27.832	54.5684	27.832	60.2656	27.832	55.9696	27.832	61.2693	27.832	57.7015	27.832	62.1015	27.832	59.3436	27.832	62.7603	27.832	60.7339	27.832	63.2422	27.832	61.8369	27.832	63.5406	27.832	62.6601	27.832	63.6459	27.832	63.2227	27.832	63.5452
29.2969	58.5663	29.2969	57.9348	29.2969	59.0321	29.2969	57.1782	29.2969	59.3118	29.2969	56.3832	29.2969	59.3913	29.2969	55.7187	29.2969	59.2579	29.2969	55.4349	29.2969	58.9012	29.2969	55.7364	29.2969	58.3233	29.2969	56.5969	29.2969	57.5682	29.2969	57.7886	29.2969	56.7878	29.2969	59.0769	29.2969	56.3241	29.2969	60.3167	29.2969	56.5989	29.2969	61.4383	29.2969	57.6706	29.2969	62.4126	29.2969	59.1493	29.2969	63.2274	29.2969	60.6412	29.2969	63.8762	29.2969	61.9482	29.2969	64.353	29.2969	63.0047	29.2969	64.6498	29.2969	63.8011	29.2969	64.7567	29.2969	64.3479	29.2969	64.661
30.7617	59.7719	30.7617	59.1722	30.7617	60.2223	30.7617	58.4673	30.7617	60.5003	30.7617	57.7457	30.7617	60.5911	30.7617	57.167	30.7617	60.4829	30.7617	56.9498	30.7617	60.1683	30.7617	57.2603	30.7617	59.6541	30.7617	58.0699	30.7617	58.9872	30.7617	59.1847	30.7617	58.3093	30.7617	60.3994	30.7617	57.9145	30.7617	61.5792	30.7617	58.1541	30.7617	62.6546	30.7617	59.0993	30.7617	63.5938	30.7617	60.4458	30.7617	64.3817	30.7617	61.8438	30.7617	65.0096	30.7617	63.0939	30.7617	65.4702	30.7617	64.1185	30.7617	65.7548	30.7617	64.8986	30.7617	65.8529	30.7617	65.439	30.7617	65.7523
32.2266	60.8662	32.2266	60.3632	32.2266	61.2501	32.2266	59.7947	32.2266	61.4846	32.2266	59.2538	32.2266	61.5509	32.2266	58.8827	32.2266	61.438	32.2266	58.8434	32.2266	61.144	32.2266	59.2315	32.2266	60.6885	32.2266	60.0036	32.2266	60.1399	32.2266	61.0145	32.2266	59.6592	32.2266	62.1117	32.2266	59.5152	32.2266	63.1878	32.2266	59.9488	32.2266	64.1809	32.2266	60.9369	32.2266	65.0578	32.2266	62.2121	32.2266	65.8006	32.2266	63.5053	32.2266	66.3976	32.2266	64.6598	32.2266	66.8391	32.2266	65.6093	32.2266	67.1151	32.2266	66.3347	32.2266	67.215	32.2266	66.8373	32.2266	67.1266
33.6914	61.9903	33.6914	61.5633	33.6914	62.3282	33.6914	61.104	33.6914	62.5429	33.6914	60.7019	33.6914	62.6144	33.6914	60.4774	33.6914	62.5324	33.6914	60.5492	33.6914	62.2981	33.6914	60.9722	33.6914	61.9329	33.6914	61.7008	33.6914	61.4977	33.6914	62.6217	33.6914	61.1211	33.6914	63.6162	33.6914	61.0046	33.6914	64.5958	33.6914	61.338	33.6914	65.5042	33.6914	62.1429	33.6914	66.3081	33.6914	63.2464	33.6914	66.9872	33.6914	64.4268	33.6914	67.527	33.6914	65.5265	33.6914	67.9158	33.6914	66.463	33.6914	68.1422	33.6914	67.202	33.6914	68.1948	33.6914	67.7342	33.6914	68.0624
35.1563	63.5679	35.1563	63.1986	35.1563	63.8653	35.1563	62.808	35.1563	64.0593	35.1563	62.4705	35.1563	64.1311	35.1563	62.2823	35.1563	64.0722	35.1563	62.3364	35.1563	63.8859	35.1563	62.6818	35.1563	63.5945	35.1563	63.2943	35.1563	63.254	35.1563	64.0924	35.1563	62.9709	35.1563	64.9792	35.1563	62.9006	35.1563	65.8733	35.1563	63.187	35.1563	66.7179	35.1563	63.8588	35.1563	67.4759	35.1563	64.7999	35.1563	68.123	35.1563	65.8367	35.1563	68.642	35.1563	66.8276	35.1563	69.0189	35.1563	67.6872	35.1563	69.2414	35.1563	68.3737	35.1563	69.2978	35.1563	68.871	35.1563	69.1773
36.6211	64.7892	36.6211	64.473	36.6211	65.0491	36.6211	64.1485	36.6211	65.2215	36.6211	63.8829	36.6211	65.2876	36.6211	63.7573	36.6211	65.2397	36.6211	63.8461	36.6211	65.083	36.6211	64.1859	36.6211	64.8417	36.6211	64.7562	36.6211	64.5711	36.6211	65.4913	36.6211	64.3685	36.6211	66.3106	36.6211	64.3654	36.6211	67.1432	36.6211	64.6747	36.6211	67.9364	36.6211	65.3137	36.6211	68.6537	36.6211	66.186	36.6211	69.27	36.6211	67.1461	36.6211	69.7669	36.6211	68.0698	36.6211	70.1294	36.6211	68.877	36.6211	70.3446	36.6211	69.5254	36.6211	70.4007	36.6211	69.997	36.6211	70.2875
38.0859	66.0898	38.0859	65.8314	38.0859	66.3072	38.0859	65.5754	38.0859	66.4542	38.0859	65.3794	38.0859	66.5133	38.0859	65.3092	38.0859	66.4785	38.0859	65.4225	38.0859	66.3567	38.0859	65.7466	38.0859	66.1739	38.0859	66.2663	38.0859	65.9828	38.0859	66.9313	38.0859	65.8684	38.0859	67.6768	38.0859	65.9358	38.0859	68.4421	38.0859	66.2672	38.0859	69.179	38.0859	66.8695	38.0859	69.852	38.0859	67.665	38.0859	70.4352	38.0859	68.5368	38.0859	70.9091	38.0859	69.3801	38.0859	71.2578	38.0859	70.1223	38.0859	71.4678	38.0859	70.7218	38.0859	71.5273	38.0859	71.1586	38.0859	71.4265
39.5508	67.4742	39.5508	67.251	39.5508	67.6649	39.5508	67.0332	39.5508	67.797	39.5508	66.8693	39.5508	67.8549	39.5508	66.8136	39.5508	67.8336	39.5508	66.9138	39.5508	67.7402	39.5508	67.1946	39.5508	67.5984	39.5508	67.6481	39.5508	67.4546	39.5508	68.2366	39.5508	67.3796	39.5508	68.9072	39.5508	67.4584	39.5508	69.6065	39.5508	67.7577	39.5508	70.2893	39.5508	68.2872	39.5508	70.9199	39.5508	68.9895	39.5508	71.4716	39.5508	69.7699	39.5508	71.9233	39.5508	70.5358	39.5508	72.2581	39.5508	71.2184	39.5508	72.4619	39.5508	71.7747	39.5508	72.5227	39.5508	72.1819	39.5508	72.4312
41.0156	69.1047	41.0156	68.8835	41.0156	69.2932	41.0156	68.6607	41.0156	69.4273	41.0156	68.4765	41.0156	69.4936	41.0156	68.3769	41.0156	69.4875	41.0156	68.4055	41.0156	69.4139	41.0156	68.5908	41.0156	69.2912	41.0156	68.9362	41.0156	69.1547	41.0156	69.4177	41.0156	69.0599	41.0156	69.9933	41.0156	69.0764	41.0156	70.6147	41.0156	69.2668	41.0156	71.2369	41.0156	69.6562	41.0156	71.8225	41.0156	70.2147	41.0156	72.3418	41.0156	70.8702	41.0156	72.7714	41.0156	71.5395	41.0156	73.0927	41.0156	72.1527	41.0156	73.2903	41.0156	72.6618	41.0156	73.3521	41.0156	73.0384	41.0156	73.2694
42.4805	69.6536	42.4805	69.4461	42.4805	69.834	42.4805	69.2437	42.4805	69.9643	42.4805	69.0872	42.4805	70.0307	42.4805	69.022	42.4805	70.0282	42.4805	69.0887	42.4805	69.9626	42.4805	69.3114	42.4805	69.8534	42.4805	69.6885	42.4805	69.738	42.4805	70.1934	42.4805	69.6733	42.4805	70.7833	42.4805	69.7281	42.4805	71.4116	42.4805	69.9604	42.4805	72.0354	42.4805	70.3881	42.4805	72.6194	42.4805	70.9753	42.4805	73.1357	42.4805	71.6481	42.4805	73.562	42.4805	72.3255	42.4805	73.8803	42.4805	72.941	42.4805	74.0758	42.4805	73.4494	42.4805	74.1367	42.4805	73.8245	42.4805	74.0544
43.9453	70.8283	43.9453	70.6589	43.9453	70.9796	43.9453	70.4999	43.9453	71.0923	43.9453	70.3865	43.9453	71.1538	43.9453	70.356	43.9453	71.1601	43.9453	70.4414	43.9453	71.1178	43.9453	70.6614	43.9453	71.0456	43.9453	71.0149	43.9453	70.9779	43.9453	71.4806	43.9453	70.9639	43.9453	72.0236	43.9453	71.0598	43.9453	72.6043	43.9453	71.3101	43.9453	73.1847	43.9453	71.7259	43.9453	73.7322	43.9453	72.2754	43.9453	74.2198	43.9453	72.8969	43.9453	74.6255	43.9453	73.5209	43.9453	74.9311	43.9453	74.0885	43.9453	75.1217	43.9453	74.558	43.9453	75.1855	43.9453	74.904	43.9453	75.1141
45.4102	71.8481	45.4102	71.7046	45.4102	71.98	45.4102	71.5756	45.4102	72.0813	45.4102	71.4923	45.4102	72.1403	45.4102	71.4873	45.4102	72.1536	45.4102	71.5884	45.4102	72.1271	45.4102	71.8112	45.4102	72.0786	45.4102	72.1541	45.4102	72.0391	45.4102	72.5985	45.4102	72.0523	45.4102	73.1139	45.4102	72.167	45.4102	73.6648	45.4102	72.4209	45.4102	74.2166	45.4102	72.8232	45.4102	74.7384	45.4102	73.3463	45.4102	75.2044	45.4102	73.9357	45.4102	75.5927	45.4102	74.5287	45.4102	75.8854	45.4102	75.0704	45.4102	76.0676	45.4102	75.5205	45.4102	76.1276	45.4102	75.8538	45.4102	76.0574
46.875	73.0859	46.875	72.9538	46.875	73.2097	46.875	72.8363	46.875	73.308	46.875	72.7606	46.875	73.3705	46.875	72.7553	46.875	73.3942	46.875	72.8446	46.875	73.3847	46.875	73.0429	46.875	73.3578	46.875	73.3504	46.875	73.3405	46.875	73.7526	46.875	73.3703	46.875	74.2238	46.875	73.488	46.875	74.7328	46.875	73.7256	46.875	75.2477	46.875	74.0914	46.875	75.7394	46.875	74.5637	46.875	76.1824	46.875	75.0966	46.875	76.555	46.875	75.6352	46.875	76.839	46.875	76.1295	46.875	77.0196	46.875	76.5411	46.875	77.0851	46.875	76.845	46.875	77.0277
48.3398	73.8862	48.3398	73.7782	48.3398	73.9941	48.3398	73.6914	48.3398	74.0862	48.3398	73.6502	48.3398	74.1526	48.3398	73.6791	48.3398	74.1909	48.3398	73.7979	48.3398	74.2068	48.3398	74.0172	48.3398	74.2151	48.3398	74.3349	48.3398	74.2409	48.3398	74.7366	48.3398	74.3164	48.3398	75.1988	48.3398	74.4754	48.3398	75.6934	48.3398	74.7419	48.3398	76.1915	48.3398	75.1193	48.3398	76.6665	48.3398	75.5857	48.3398	77.0948	48.3398	76.0999	48.3398	77.4558	48.3398	76.6137	48.3398	77.7323	48.3398	77.0824	48.3398	77.9098	48.3398	77.4712	48.3398	77.9771	48.3398	77.7569	48.3398	77.927
51.2695	75.9811	51.2695	75.894	51.2695	76.071	51.2695	75.8258	51.2695	76.1515	51.2695	75.7948	51.2695	76.2151	51.2695	75.8195	51.2695	76.26	51.2695	75.9155	51.2695	76.2903	51.2695	76.0921	51.2695	76.3173	51.2695	76.3499	51.2695	76.3595	51.2695	76.6804	51.2695	76.4403	51.2695	77.0671	51.2695	76.5846	51.2695	77.4881	51.2695	76.8107	51.2695	77.9195	51.2695	77.1231	51.2695	78.3375	51.2695	77.5081	51.2695	78.7197	51.2695	77.936	51.2695	79.0461	51.2695	78.3687	51.2695	79.2994	51.2695	78.7681	51.2695	79.465	51.2695	79.1025	51.2695	79.5321	51.2695	79.3489	51.2695	79.4939
52.7344	76.8277	52.7344	76.761	52.7344	76.9037	52.7344	76.7173	52.7344	76.9783	52.7344	76.7118	52.7344	77.0451	52.7344	76.7591	52.7344	77.1019	52.7344	76.8712	52.7344	77.1524	52.7344	77.0546	52.7344	77.2058	52.7344	77.3088	52.7344	77.277	52.7344	77.6256	52.7344	77.3846	52.7344	77.9908	52.7344	77.5476	52.7344	78.3856	52.7344	77.7795	52.7344	78.7891	52.7344	78.0826	52.7344	79.18	52.7344	78.4451	52.7344	79.5381	52.7344	78.8418	52.7344	79.8447	52.7344	79.2403	52.7344	80.0835	52.7344	79.6076	52.7344	80.2408	52.7344	79.9149	52.7344	80.3062	52.7344	80.1411	52.7344	80.2733
54.1992	77.782	54.1992	77.7214	54.1992	77.8523	54.1992	77.6824	54.1992	77.923	54.1992	77.6783	54.1992	77.9881	54.1992	77.7219	54.1992	78.0459	54.1992	77.8237	54.1992	78.0992	54.1992	77.9898	54.1992	78.1558	54.1992	78.2203	54.1992	78.2283	54.1992	78.5089	54.1992	78.3326	54.1992	78.8435	54.1992	78.4851	54.1992	79.2075	54.1992	78.6978	54.1992	79.582	54.1992	78.9737	54.1992	79.9472	54.1992	79.3033	54.1992	80.2837	54.1992	79.6653	54.1992	80.5735	54.1992	80.031	54.1992	80.8004	54.1992	80.3697	54.1992	80.951	54.1992	80.6543	54.1992	81.015	54.1992	80.8642	54.1992	80.9863
55.6641	78.6447	55.6641	78.5912	55.6641	78.7088	55.6641	78.5586	55.6641	78.7752	55.6641	78.5584	55.6641	78.8386	55.6641	78.6019	55.6641	78.8974	55.6641	78.6983	55.6641	78.9539	55.6641	78.853	55.6641	79.0146	55.6641	79.0665	55.6641	79.0905	55.6641	79.3336	55.6641	79.1952	55.6641	79.644	55.6641	79.3428	55.6641	79.983	55.6641	79.5438	55.6641	80.3335	55.6641	79.8011	55.6641	80.677	55.6641	80.1068	55.6641	80.9951	55.6641	80.4423	55.6641	81.2704	55.6641	80.7817	55.6641	81.4872	55.6641	81.0969	55.6641	81.6322	55.6641	81.3622	55.6641	81.6953	55.6641	81.5578	55.6641	81.6707
58.5938	80.1011	58.5938	80.0597	58.5938	80.155	58.5938	80.0388	58.5938	80.2147	58.5938	80.0474	58.5938	80.2762	58.5938	80.0943	58.5938	80.3383	58.5938	80.1867	58.5938	80.403	58.5938	80.3289	58.5938	80.4755	58.5938	80.5213	58.5938	80.5641	58.5938	80.7601	58.5938	80.6787	58.5938	81.0368	58.5938	80.8289	58.5938	81.3394	58.5938	81.0212	58.5938	81.6534	58.5938	81.2564	58.5938	81.9626	58.5938	81.5273	58.5938	82.2503	58.5938	81.8194	58.5938	82.5007	58.5938	82.1124	58.5938	82.699	58.5938	82.3838	58.5938	82.8331	58.5938	82.6122	58.5938	82.8938	58.5938	82.7803	58.5938	82.8762
60.0586	80.7704	60.0586	80.7346	60.0586	80.8201	60.0586	80.7196	60.0586	80.8782	60.0586	80.7332	60.0586	80.941	60.0586	80.7826	60.0586	81.0074	60.0586	80.8738	60.0586	81.0789	60.0586	81.0105	60.0586	81.1596	60.0586	81.1929	60.0586	81.2562	60.0586	81.4176	60.0586	81.3765	60.0586	81.6772	60.0586	81.528	60.0586	81.9612	60.0586	81.7156	60.0586	82.2564	60.0586	81.9393	60.0586	82.5479	60.0586	82.1929	60.0586	82.8204	60.0586	82.4635	60.0586	83.0586	60.0586	82.7334	60.0586	83.2488	60.0586	82.9824	60.0586	83.379	60.0586	83.1913	60.0586	83.4406	60.0586	83.3438	60.0586	83.4288
62.9883	82.0598	62.9883	82.0335	62.9883	82.1019	62.9883	82.0278	62.9883	82.156	62.9883	82.0479	62.9883	82.2193	62.9883	82.0987	62.9883	82.2909	62.9883	82.1843	62.9883	82.3713	62.9883	82.3072	62.9883	82.4629	62.9883	82.4674	62.9883	82.5693	62.9883	82.6626	62.9883	82.6949	62.9883	82.8873	62.9883	82.8439	62.9883	83.1334	62.9883	83.0185	62.9883	83.3905	62.9883	83.218	62.9883	83.6464	62.9883	83.4373	62.9883	83.8878	62.9883	83.6668	62.9883	84.1014	62.9883	83.8928	62.9883	84.2747	62.9883	84.0995	62.9883	84.3968	62.9883	84.2712	62.9883	84.4595	62.9883	84.3941	62.9883	84.4586
64.4531	82.6254	64.4531	82.6026	64.4531	82.6646	64.4531	82.6001	64.4531	82.7169	64.4531	82.622	64.4531	82.7802	64.4531	82.6724	64.4531	82.8534	64.4531	82.7544	64.4531	82.9368	64.4531	82.8701	64.4531	83.0318	64.4531	83.0196	64.4531	83.1411	64.4531	83.2009	64.4531	83.2676	64.4531	83.4093	64.4531	83.4141	64.4531	83.6379	64.4531	83.5819	64.4531	83.8773	64.4531	83.7698	64.4531	84.1165	64.4531	83.9733	64.4531	84.3434	64.4531	84.184	64.4531	84.5455	64.4531	84.3901	64.4531	84.7108	64.4531	84.5775	64.4531	84.829	64.4531	84.7321	64.4531	84.8922	64.4531	84.8414	64.4531	84.8964
67.3828	83.5592	67.3828	83.5411	67.3828	83.5948	67.3828	83.5429	67.3828	83.6459	67.3828	83.5671	67.3828	83.7108	67.3828	83.6162	67.3828	83.7885	67.3828	83.6921	67.3828	83.8787	67.3828	83.796	67.3828	83.9813	67.3828	83.9278	67.3828	84.097	67.3828	84.0861	67.3828	84.2263	67.3828	84.2674	67.3828	84.3698	67.3828	84.4664	67.3828	84.527	67.3828	84.6758	67.3828	84.696	67.3828	84.8867	67.3828	84.873	67.3828	85.0888	67.3828	85.0513	67.3828	85.2713	67.3828	85.2221	67.3828	85.4236	67.3828	85.3746	67.3828	85.5362	67.3828	85.4976	67.3828	85.602	67.3828	85.5808	67.3828	85.6169
68.8477	83.9262	68.8477	83.9103	68.8477	83.9601	68.8477	83.9143	68.8477	84.0106	68.8477	83.9399	68.8477	84.0764	68.8477	83.9889	68.8477	84.1564	68.8477	84.0624	68.8477	84.2498	68.8477	84.1614	68.8477	84.3561	68.8477	84.2856	68.8477	84.475	68.8477	84.4337	68.8477	84.6059	68.8477	84.6027	68.8477	84.7482	68.8477	84.7882	68.8477	84.9009	68.8477	84.9836	68.8477	85.0615	68.8477	85.1811	68.8477	85.2264	68.8477	85.3713	68.8477	85.3899	68.8477	85.5443	68.8477	85.5443	68.8477	85.6901	68.8477	85.6804	68.8477	85.7998	68.8477	85.7884	68.8477	85.8665	68.8477	85.8593	68.8477	85.8865
