"SPL Horizontal"																																																																							
"On-Axis"		"10°"		"-10°"		"20°"		"-20°"		"30°"		"-30°"		"40°"		"-40°"		"50°"		"-50°"		"60°"		"-60°"		"70°"		"-70°"		"80°"		"-80°"		"90°"		"-90°"		"100°"		"-100°"		"110°"		"-110°"		"120°"		"-120°"		"130°"		"-130°"		"140°"		"-140°"		"150°"		"-150°"		"160°"		"-160°"		"170°"		"-170°"		"180°"	
"Frequency [Hz]"	"Sound Pessure Level [dB]  / [2.83V 1m] "	"Frequency [Hz]"	"Sound Pessure Level [dB]  / [2.83V 1m] "	"Frequency [Hz]"	"Sound Pessure Level [dB]  / [2.83V 1m] "	"Frequency [Hz]"	"Sound Pessure Level [dB]  / [2.83V 1m] "	"Frequency [Hz]"	"Sound Pessure Level [dB]  / [2.83V 1m] "	"Frequency [Hz]"	"Sound Pessure Level [dB]  / [2.83V 1m] "	"Frequency [Hz]"	"Sound Pessure Level [dB]  / [2.83V 1m] "	"Frequency [Hz]"	"Sound Pessure Level [dB]  / [2.83V 1m] "	"Frequency [Hz]"	"Sound Pessure Level [dB]  / [2.83V 1m] "	"Frequency [Hz]"	"Sound Pessure Level [dB]  / [2.83V 1m] "	"Frequency [Hz]"	"Sound Pessure Level [dB]  / [2.83V 1m] "	"Frequency [Hz]"	"Sound Pessure Level [dB]  / [2.83V 1m] "	"Frequency [Hz]"	"Sound Pessure Level [dB]  / [2.83V 1m] "	"Frequency [Hz]"	"Sound Pessure Level [dB]  / [2.83V 1m] "	"Frequency [Hz]"	"Sound Pessure Level [dB]  / [2.83V 1m] "	"Frequency [Hz]"	"Sound Pessure Level [dB]  / [2.83V 1m] "	"Frequency [Hz]"	"Sound Pessure Level [dB]  / [2.83V 1m] "	"Frequency [Hz]"	"Sound Pessure Level [dB]  / [2.83V 1m] "	"Frequency [Hz]"	"Sound Pessure Level [dB]  / [2.83V 1m] "	"Frequency [Hz]"	"Sound Pessure Level [dB]  / [2.83V 1m] "	"Frequency [Hz]"	"Sound Pessure Level [dB]  / [2.83V 1m] "	"Frequency [Hz]"	"Sound Pessure Level [dB]  / [2.83V 1m] "	"Frequency [Hz]"	"Sound Pessure Level [dB]  / [2.83V 1m] "	"Frequency [Hz]"	"Sound Pessure Level [dB]  / [2.83V 1m] "	"Frequency [Hz]"	"Sound Pessure Level [dB]  / [2.83V 1m] "	"Frequency [Hz]"	"Sound Pessure Level [dB]  / [2.83V 1m] "	"Frequency [Hz]"	"Sound Pessure Level [dB]  / [2.83V 1m] "	"Frequency [Hz]"	"Sound Pessure Level [dB]  / [2.83V 1m] "	"Frequency [Hz]"	"Sound Pessure Level [dB]  / [2.83V 1m] "	"Frequency [Hz]"	"Sound Pessure Level [dB]  / [2.83V 1m] "	"Frequency [Hz]"	"Sound Pessure Level [dB]  / [2.83V 1m] "	"Frequency [Hz]"	"Sound Pessure Level [dB]  / [2.83V 1m] "	"Frequency [Hz]"	"Sound Pessure Level [dB]  / [2.83V 1m] "	"Frequency [Hz]"	"Sound Pessure Level [dB]  / [2.83V 1m] "	"Frequency [Hz]"	"Sound Pessure Level [dB]  / [2.83V 1m] "	"Frequency [Hz]"	"Sound Pessure Level [dB]  / [2.83V 1m] "
20.5078	48.2797	20.5078	48.156	20.5078	48.0618	20.5078	47.6827	20.5078	47.4809	20.5078	46.8249	20.5078	46.4817	20.5078	45.5269	20.5078	44.9694	20.5078	43.7694	20.5078	42.8479	20.5078	41.8941	20.5078	40.4266	20.5078	41.4256	20.5078	39.9444	20.5078	43.4766	20.5078	42.7577	20.5078	46.3685	20.5078	46.0873	20.5078	48.9678	20.5078	48.851	20.5078	51.1076	20.5078	51.0532	20.5078	52.8381	20.5078	52.809	20.5078	54.2231	20.5078	54.205	20.5078	55.3099	20.5078	55.2974	20.5078	56.1299	20.5078	56.121	20.5078	56.7034	20.5078	56.6975	20.5078	57.0425	20.5078	57.0396	20.5078	57.1539
21.9727	53.2011	21.9727	53.1177	21.9727	53.0554	21.9727	52.7996	21.9727	52.6719	21.9727	52.2273	21.9727	52.0269	21.9727	51.3641	21.9727	51.0777	21.9727	50.1541	21.9727	49.7584	21.9727	48.5288	21.9727	47.986	21.9727	46.48	21.9727	45.7518	21.9727	44.4525	21.9727	43.6574	21.9727	44.1049	21.9727	43.7527	21.9727	46.1462	21.9727	46.2329	21.9727	48.7833	21.9727	48.9815	21.9727	51.0675	21.9727	51.2593	21.9727	52.8829	21.9727	53.0424	21.9727	54.2816	21.9727	54.4059	21.9727	55.3214	21.9727	55.4121	21.9727	56.0432	21.9727	56.1024	21.9727	56.4728	21.9727	56.5021	21.9727	56.6243
23.4375	51.7933	23.4375	51.6739	23.4375	51.6034	23.4375	51.2371	23.4375	51.0904	23.4375	50.4525	23.4375	50.2161	23.4375	49.272	23.4375	48.9205	23.4375	47.6647	23.4375	47.1567	23.4375	45.8132	23.4375	45.1275	23.4375	44.7539	23.4375	44.1089	23.4375	45.9866	23.4375	45.7179	23.4375	48.6168	23.4375	48.5783	23.4375	51.2175	23.4375	51.2445	23.4375	53.4081	23.4375	53.4444	23.4375	55.1876	23.4375	55.2181	23.4375	56.6113	23.4375	56.6333	23.4375	57.7269	23.4375	57.7415	23.4375	58.5678	23.4375	58.5767	23.4375	59.1556	23.4375	59.1606	23.4375	59.5039	23.4375	59.5061	23.4375	59.6199
24.9023	53.1599	24.9023	53.0305	24.9023	53.0067	24.9023	52.6114	24.9023	52.5641	24.9023	51.8843	24.9023	51.8148	24.9023	50.8315	24.9023	50.744	24.9023	49.4892	24.9023	49.3967	24.9023	48.1314	24.9023	48.0685	24.9023	47.591	24.9023	47.6064	24.9023	48.684	24.9023	48.7595	24.9023	50.826	24.9023	50.9005	24.9023	53.0739	24.9023	53.1252	24.9023	55.0578	24.9023	55.0876	24.9023	56.7153	24.9023	56.7295	24.9023	58.0635	24.9023	58.0678	24.9023	59.1306	24.9023	59.1295	24.9023	59.9397	24.9023	59.9363	24.9023	60.5072	24.9023	60.5037	24.9023	60.8433	24.9023	60.8412	24.9023	60.954
26.3672	55.3563	26.3672	55.2503	26.3672	55.239	26.3672	54.9205	26.3672	54.8982	26.3672	54.3706	26.3672	54.3379	26.3672	53.6243	26.3672	53.5824	26.3672	52.7682	26.3672	52.7188	26.3672	52.0326	26.3672	51.9787	26.3672	51.8334	26.3672	51.7782	26.3672	52.503	26.3672	52.4482	26.3672	53.8847	26.3672	53.8301	26.3672	55.5377	26.3672	55.4834	26.3672	57.1463	26.3672	57.0936	26.3672	58.5744	26.3672	58.525	26.3672	59.7795	26.3672	59.7352	26.3672	60.7548	26.3672	60.7173	26.3672	61.5043	26.3672	61.4749	26.3672	62.0335	26.3672	62.0133	26.3672	62.347	26.3672	62.3368	26.3672	62.4478
27.832	56.6493	27.832	56.5541	27.832	56.5402	27.832	56.2575	27.832	56.2269	27.832	55.77	27.832	55.7166	27.832	55.1262	27.832	55.0378	27.832	54.4203	27.832	54.2775	27.832	53.8615	27.832	53.642	27.832	53.7742	27.832	53.4756	27.832	54.3917	27.832	54.0541	27.832	55.6013	27.832	55.2787	27.832	57.0738	27.832	56.7945	27.832	58.5429	27.832	58.3112	27.832	59.8726	27.832	59.6845	27.832	61.0098	27.832	60.8597	27.832	61.9376	27.832	61.8215	27.832	62.6535	27.832	62.5685	27.832	63.1588	27.832	63.103	27.832	63.4555	27.832	63.4279	27.832	63.5452
29.2969	58.5663	29.2969	58.4846	29.2969	58.4673	29.2969	58.2251	29.2969	58.1889	29.2969	57.7984	29.2969	57.7399	29.2969	57.2353	29.2969	57.1485	29.2969	56.6115	29.2969	56.4879	29.2969	56.0852	29.2969	55.9172	29.2969	55.9043	29.2969	55.6949	29.2969	56.2875	29.2969	56.0593	29.2969	57.2248	29.2969	57.0077	29.2969	58.4854	29.2969	58.2967	29.2969	59.82	29.2969	59.6633	29.2969	61.0718	29.2969	60.9445	29.2969	62.1652	29.2969	62.0637	29.2969	63.0691	29.2969	62.9906	29.2969	63.7725	29.2969	63.715	29.2969	64.2725	29.2969	64.2347	29.2969	64.5685	29.2969	64.5498	29.2969	64.661
30.7617	59.7719	30.7617	59.7018	30.7617	59.6745	30.7617	59.4682	30.7617	59.4116	30.7617	59.0843	30.7617	58.9942	30.7617	58.5836	30.7617	58.4538	30.7617	58.0408	30.7617	57.865	30.7617	57.5997	30.7617	57.3772	30.7617	57.4707	30.7617	57.2165	30.7617	57.8331	30.7617	57.5796	30.7617	58.6845	30.7617	58.4626	30.7617	59.8406	30.7617	59.6624	30.7617	61.086	30.7617	60.9483	30.7617	62.2722	30.7617	62.1673	30.7617	63.3205	30.7617	63.2412	30.7617	64.1945	30.7617	64.1358	30.7617	64.8791	30.7617	64.8374	30.7617	65.3681	30.7617	65.3413	30.7617	65.6594	30.7617	65.6463	30.7617	65.7523
32.2266	60.8662	32.2266	60.8011	32.2266	60.7854	32.2266	60.5955	32.2266	60.5634	32.2266	60.2678	32.2266	60.2176	32.2266	59.8597	32.2266	59.789	32.2266	59.453	32.2266	59.36	32.2266	59.1833	32.2266	59.0693	32.2266	59.2192	32.2266	59.0914	32.2266	59.6749	32.2266	59.5462	32.2266	60.5194	32.2266	60.4019	32.2266	61.6011	32.2266	61.5005	32.2266	62.7517	32.2266	62.6686	32.2266	63.8505	32.2266	63.7832	32.2266	64.8282	32.2266	64.7747	32.2266	65.6489	32.2266	65.6077	32.2266	66.2954	32.2266	66.2653	32.2266	66.7595	32.2266	66.7397	32.2266	67.0371	32.2266	67.0273	32.2266	67.1266
33.6914	61.9903	33.6914	61.9314	33.6914	61.928	33.6914	61.757	33.6914	61.7505	33.6914	61.4868	33.6914	61.4777	33.6914	61.1627	33.6914	61.1514	33.6914	60.8591	33.6914	60.8461	33.6914	60.6885	33.6914	60.6733	33.6914	60.7785	33.6914	60.7602	33.6914	61.2106	33.6914	61.188	33.6914	61.9628	33.6914	61.9356	33.6914	62.9238	33.6914	62.8928	33.6914	63.9605	33.6914	63.9276	33.6914	64.9676	33.6914	64.9348	33.6914	65.8773	33.6914	65.8467	33.6914	66.6502	33.6914	66.6236	33.6914	67.2647	33.6914	67.2434	33.6914	67.7087	33.6914	67.6938	33.6914	67.9756	33.6914	67.968	33.6914	68.0624
35.1563	63.5679	35.1563	63.5208	35.1563	63.5131	35.1563	63.3778	35.1563	63.3618	35.1563	63.1578	35.1563	63.1325	35.1563	62.8985	35.1563	62.8624	35.1563	62.6628	35.1563	62.6143	35.1563	62.5402	35.1563	62.4781	35.1563	62.6291	35.1563	62.5546	35.1563	62.9956	35.1563	62.9125	35.1563	63.6327	35.1563	63.5467	35.1563	64.4627	35.1563	64.3794	35.1563	65.38	35.1563	65.3033	35.1563	66.2907	35.1563	66.2229	35.1563	67.1276	35.1563	67.07	35.1563	67.8478	35.1563	67.801	35.1563	68.4252	35.1563	68.3897	35.1563	68.8445	35.1563	68.8207	35.1563	69.0967	35.1563	69.0848	35.1563	69.1773
36.6211	64.7892	36.6211	64.7471	36.6211	64.7445	36.6211	64.6243	36.6211	64.6185	36.6211	64.44	36.6211	64.4297	36.6211	64.2306	36.6211	64.2137	36.6211	64.0539	36.6211	64.0275	36.6211	63.9877	36.6211	63.9486	36.6211	64.113	36.6211	64.0591	36.6211	64.4809	36.6211	64.4128	36.6211	65.0831	36.6211	65.0049	36.6211	65.8551	36.6211	65.7725	36.6211	66.7079	36.6211	66.6264	36.6211	67.5586	36.6211	67.4828	36.6211	68.3453	36.6211	68.2784	36.6211	69.0258	36.6211	68.9701	36.6211	69.5737	36.6211	69.5307	36.6211	69.9724	36.6211	69.9432	36.6211	70.2121	36.6211	70.1973	36.6211	70.2875
38.0859	66.0898	38.0859	66.058	38.0859	66.052	38.0859	65.9627	38.0859	65.9501	38.0859	65.8226	38.0859	65.8018	38.0859	65.6712	38.0859	65.64	38.0859	65.5591	38.0859	65.5148	38.0859	65.5502	38.0859	65.4905	38.0859	65.7074	38.0859	65.6319	38.0859	66.0681	38.0859	65.9794	38.0859	66.625	38.0859	66.5283	38.0859	67.3275	38.0859	67.2291	38.0859	68.1036	38.0859	68.0093	38.0859	68.883	38.0859	68.7971	38.0859	69.6096	38.0859	69.535	38.0859	70.243	38.0859	70.1815	38.0859	70.7558	38.0859	70.7089	38.0859	71.1305	38.0859	71.0988	38.0859	71.356	38.0859	71.34	38.0859	71.4265
39.5508	67.4742	39.5508	67.4501	39.5508	67.4406	39.5508	67.3739	39.5508	67.3545	39.5508	67.2618	39.5508	67.2321	39.5508	67.1429	39.5508	67.1022	39.5508	67.0596	39.5508	67.0075	39.5508	67.0646	39.5508	67.0014	39.5508	67.2094	39.5508	67.1369	39.5508	67.5268	39.5508	67.4482	39.5508	68.0152	39.5508	67.9347	39.5508	68.6372	39.5508	68.5589	39.5508	69.3345	39.5508	69.2618	39.5508	70.0454	39.5508	69.9804	39.5508	70.7168	39.5508	70.6611	39.5508	71.3084	39.5508	71.263	39.5508	71.7916	39.5508	71.7571	39.5508	72.1471	39.5508	72.1239	39.5508	72.3626	39.5508	72.3509	39.5508	72.4312
41.0156	69.1047	41.0156	69.0938	41.0156	69.0624	41.0156	69.0338	41.0156	68.9716	41.0156	68.9372	41.0156	68.8458	41.0156	68.8265	41.0156	68.7093	41.0156	68.7348	41.0156	68.5974	41.0156	68.7044	41.0156	68.5551	41.0156	68.7795	41.0156	68.6293	41.0156	68.9945	41.0156	68.8548	41.0156	69.3597	41.0156	69.2399	41.0156	69.856	41.0156	69.7609	41.0156	70.4405	41.0156	70.3698	41.0156	71.0596	41.0156	71.0101	41.0156	71.662	41.0156	71.629	41.0156	72.205	41.0156	72.1841	41.0156	72.6563	41.0156	72.6437	41.0156	72.9931	41.0156	72.9861	41.0156	73.2004	41.0156	73.1973	41.0156	73.2694
42.4805	69.6536	42.4805	69.6194	42.4805	69.6387	42.4805	69.5404	42.4805	69.5789	42.4805	69.4307	42.4805	69.4877	42.4805	69.3148	42.4805	69.3889	42.4805	69.2286	42.4805	69.3165	42.4805	69.2167	42.4805	69.3128	42.4805	69.3241	42.4805	69.4203	42.4805	69.5823	42.4805	69.6697	42.4805	69.9958	42.4805	70.0669	42.4805	70.5382	42.4805	70.589	42.4805	71.1611	42.4805	71.1916	42.4805	71.8087	42.4805	71.8221	42.4805	72.4302	42.4805	72.4311	42.4805	72.9844	42.4805	72.9779	42.4805	73.4412	42.4805	73.4319	42.4805	73.7796	42.4805	73.7713	42.4805	73.9864	42.4805	73.9816	42.4805	74.0544
43.9453	70.8283	43.9453	70.8099	43.9453	70.8083	43.9453	70.7577	43.9453	70.7539	43.9453	70.6844	43.9453	70.6774	43.9453	70.6124	43.9453	70.6004	43.9453	70.5724	43.9453	70.5532	43.9453	70.6011	43.9453	70.5725	43.9453	70.7342	43.9453	70.6945	43.9453	70.9954	43.9453	70.9442	43.9453	71.3872	43.9453	71.3259	43.9453	71.8879	43.9453	71.8196	43.9453	72.458	43.9453	72.3868	43.9453	73.0505	43.9453	72.9808	43.9453	73.6208	43.9453	73.5566	43.9453	74.1314	43.9453	74.076	43.9453	74.5533	43.9453	74.5094	43.9453	74.8658	43.9453	74.8355	43.9453	75.0554	43.9453	75.0398	43.9453	75.1141
45.4102	71.8481	45.4102	71.8428	45.4102	71.8227	45.4102	71.8108	45.4102	71.7706	45.4102	71.7639	45.4102	71.7034	45.4102	71.722	45.4102	71.6414	45.4102	71.7123	45.4102	71.6124	45.4102	71.7662	45.4102	71.6492	45.4102	71.9137	45.4102	71.7835	45.4102	72.1743	45.4102	72.0363	45.4102	72.5498	45.4102	72.4103	45.4102	73.0217	45.4102	72.8869	45.4102	73.5562	45.4102	73.431	45.4102	74.1118	45.4102	74.0001	45.4102	74.648	45.4102	74.5523	45.4102	75.1296	45.4102	75.0515	45.4102	75.5287	45.4102	75.4693	45.4102	75.8247	45.4102	75.7847	45.4102	76.0036	45.4102	75.9835	45.4102	76.0574
46.875	73.0859	46.875	73.0786	46.875	73.0683	46.875	73.0495	46.875	73.0293	46.875	73.009	46.875	72.9798	46.875	72.9741	46.875	72.9374	46.875	72.9685	46.875	72.9264	46.875	73.0196	46.875	72.9744	46.875	73.1536	46.875	73.108	46.875	73.3887	46.875	73.345	46.875	73.7283	46.875	73.6881	46.875	74.1582	46.875	74.1224	46.875	74.6496	46.875	74.6184	46.875	75.1658	46.875	75.1391	46.875	75.669	46.875	75.6466	46.875	76.1253	46.875	76.1072	46.875	76.507	46.875	76.4932	46.875	76.7933	46.875	76.7839	46.875	76.9696	46.875	76.9649	46.875	77.0277
48.3398	73.8862	48.3398	73.8766	48.3398	73.8799	48.3398	73.8544	48.3398	73.8611	48.3398	73.8294	48.3398	73.8399	48.3398	73.8176	48.3398	73.8323	48.3398	73.8408	48.3398	73.8596	48.3398	73.923	48.3398	73.9453	48.3398	74.0862	48.3398	74.1107	48.3398	74.3442	48.3398	74.3689	48.3398	74.697	48.3398	74.72	48.3398	75.1299	48.3398	75.1492	48.3398	75.6155	48.3398	75.6301	48.3398	76.1201	48.3398	76.1298	48.3398	76.609	48.3398	76.6144	48.3398	77.051	48.3398	77.0532	48.3398	77.4205	48.3398	77.4207	48.3398	77.6977	48.3398	77.6971	48.3398	77.8692	48.3398	77.8687	48.3398	77.927
51.2695	75.9811	51.2695	75.9772	51.2695	75.9756	51.2695	75.9666	51.2695	75.9632	51.2695	75.9568	51.2695	75.9516	51.2695	75.9601	51.2695	75.9529	51.2695	75.9925	51.2695	75.9833	51.2695	76.0719	51.2695	76.0605	51.2695	76.215	51.2695	76.2012	51.2695	76.4325	51.2695	76.4165	51.2695	76.7262	51.2695	76.7082	51.2695	77.0866	51.2695	77.067	51.2695	77.4939	51.2695	77.4736	51.2695	77.922	51.2695	77.9017	51.2695	78.3418	51.2695	78.3227	51.2695	78.7255	51.2695	78.7088	51.2695	79.0492	51.2695	79.0356	51.2695	79.2934	51.2695	79.2838	51.2695	79.4443	51.2695	79.4394	51.2695	79.4939
52.7344	76.8277	52.7344	76.8279	52.7344	76.8261	52.7344	76.829	52.7344	76.8251	52.7344	76.8374	52.7344	76.8311	52.7344	76.8634	52.7344	76.8542	52.7344	76.9203	52.7344	76.9073	52.7344	77.022	52.7344	77.0047	52.7344	77.1811	52.7344	77.1588	52.7344	77.4052	52.7344	77.3776	52.7344	77.6942	52.7344	77.6616	52.7344	78.0389	52.7344	78.0025	52.7344	78.4224	52.7344	78.3836	52.7344	78.8216	52.7344	78.7826	52.7344	79.2113	52.7344	79.1743	52.7344	79.5667	52.7344	79.534	52.7344	79.866	52.7344	79.8395	52.7344	80.0913	52.7344	80.0726	52.7344	80.2296	52.7344	80.22	52.7344	80.2733
54.1992	77.782	54.1992	77.7834	54.1992	77.7808	54.1992	77.7869	54.1992	77.7817	54.1992	77.7982	54.1992	77.7902	54.1992	77.8259	54.1992	77.8151	54.1992	77.8814	54.1992	77.8676	54.1992	77.977	54.1992	77.96	54.1992	78.1236	54.1992	78.1033	54.1992	78.3282	54.1992	78.3047	54.1992	78.5915	54.1992	78.565	54.1992	78.9063	54.1992	78.8775	54.1992	79.2579	54.1992	79.2278	54.1992	79.6261	54.1992	79.5961	54.1992	79.9878	54.1992	79.9594	54.1992	80.3197	54.1992	80.2945	54.1992	80.6006	54.1992	80.5802	54.1992	80.8131	54.1992	80.7987	54.1992	80.9442	54.1992	80.9368	54.1992	80.9863
55.6641	78.6447	55.6641	78.6479	55.6641	78.6435	55.6641	78.6548	55.6641	78.646	55.6641	78.6702	55.6641	78.657	55.6641	78.7018	55.6641	78.6842	55.6641	78.7594	55.6641	78.7374	55.6641	78.8536	55.6641	78.8272	55.6641	78.9939	55.6641	78.9635	55.6641	79.1866	55.6641	79.1525	55.6641	79.4324	55.6641	79.3953	55.6641	79.7253	55.6641	79.6863	55.6641	80.0524	55.6641	80.0128	55.6641	80.3956	55.6641	80.357	55.6641	80.7336	55.6641	80.6979	55.6641	81.0447	55.6641	81.0135	55.6641	81.3086	55.6641	81.2837	55.6641	81.5086	55.6641	81.4911	55.6641	81.6318	55.6641	81.6229	55.6641	81.6707
58.5938	80.1011	58.5938	80.106	58.5938	80.102	58.5938	80.1179	58.5938	80.1098	58.5938	80.1408	58.5938	80.1284	58.5938	80.1807	58.5938	80.1639	58.5938	80.2454	58.5938	80.2238	58.5938	80.3428	58.5938	80.3162	58.5938	80.4801	58.5938	80.4484	58.5938	80.6616	58.5938	80.625	58.5938	80.8871	58.5938	80.8463	58.5938	81.1513	58.5938	81.1075	58.5938	81.4434	58.5938	81.3982	58.5938	81.7482	58.5938	81.7036	58.5938	82.0477	58.5938	82.006	58.5938	82.3232	58.5938	82.2866	58.5938	82.557	58.5938	82.5275	58.5938	82.734	58.5938	82.7134	58.5938	82.8427	58.5938	82.8321	58.5938	82.8762
60.0586	80.7704	60.0586	80.7771	60.0586	80.7718	60.0586	80.7929	60.0586	80.7823	60.0586	80.8211	60.0586	80.8054	60.0586	80.8667	60.0586	80.846	60.0586	80.9361	60.0586	80.9106	60.0586	81.0358	60.0586	81.0059	60.0586	81.1717	60.0586	81.1377	60.0586	81.347	60.0586	81.3097	60.0586	81.5616	60.0586	81.5218	60.0586	81.8106	60.0586	81.7694	60.0586	82.0845	60.0586	82.0432	60.0586	82.3697	60.0586	82.3299	60.0586	82.65	60.0586	82.6133	60.0586	82.9082	60.0586	82.8763	60.0586	83.1278	60.0586	83.1022	60.0586	83.2944	60.0586	83.2765	60.0586	83.397	60.0586	83.3878	60.0586	83.4288
62.9883	82.0598	62.9883	82.0666	62.9883	82.0644	62.9883	82.0857	62.9883	82.0812	62.9883	82.119	62.9883	82.1125	62.9883	82.1701	62.9883	82.1615	62.9883	82.243	62.9883	82.2325	62.9883	82.342	62.9883	82.3298	62.9883	82.4709	62.9883	82.4569	62.9883	82.6316	62.9883	82.6159	62.9883	82.8236	62.9883	82.8062	62.9883	83.043	62.9883	83.024	62.9883	83.2822	62.9883	83.2622	62.9883	83.5305	62.9883	83.5101	62.9883	83.7745	62.9883	83.7547	62.9883	83.9998	62.9883	83.9818	62.9883	84.192	62.9883	84.1771	62.9883	84.3386	62.9883	84.3279	62.9883	84.4295	62.9883	84.4239	62.9883	84.4586
64.4531	82.6254	64.4531	82.6327	64.4531	82.6308	64.4531	82.6532	64.4531	82.6495	64.4531	82.6887	64.4531	82.6831	64.4531	82.7417	64.4531	82.7344	64.4531	82.8157	64.4531	82.8065	64.4531	82.9139	64.4531	82.9029	64.4531	83.0392	64.4531	83.0262	64.4531	83.1929	64.4531	83.178	64.4531	83.3744	64.4531	83.3575	64.4531	83.58	64.4531	83.5613	64.4531	83.803	64.4531	83.783	64.4531	84.0339	64.4531	84.0133	64.4531	84.2606	64.4531	84.2405	64.4531	84.4699	64.4531	84.4515	64.4531	84.6486	64.4531	84.6334	64.4531	84.7849	64.4531	84.774	64.4531	84.8695	64.4531	84.8637	64.4531	84.8964
67.3828	83.5592	67.3828	83.5676	67.3828	83.5656	67.3828	83.5911	67.3828	83.5871	67.3828	83.6307	67.3828	83.6249	67.3828	83.6878	67.3828	83.6803	67.3828	83.764	67.3828	83.7552	67.3828	83.8612	67.3828	83.8511	67.3828	83.9807	67.3828	83.9695	67.3828	84.1229	67.3828	84.1107	67.3828	84.2867	67.3828	84.2736	67.3828	84.4691	67.3828	84.4551	67.3828	84.6647	67.3828	84.6501	67.3828	84.8658	67.3828	84.851	67.3828	85.0628	67.3828	85.0484	67.3828	85.2446	67.3828	85.2315	67.3828	85.4001	67.3828	85.3892	67.3828	85.5191	67.3828	85.5111	67.3828	85.5931	67.3828	85.5889	67.3828	85.6169
68.8477	83.9262	68.8477	83.9346	68.8477	83.9336	68.8477	83.959	68.8477	83.9571	68.8477	84	68.8477	83.9974	68.8477	84.0584	68.8477	84.0553	68.8477	84.1355	68.8477	84.1318	68.8477	84.2322	68.8477	84.2281	68.8477	84.3491	68.8477	84.3447	68.8477	84.4863	68.8477	84.4814	68.8477	84.6425	68.8477	84.6369	68.8477	84.8147	68.8477	84.8083	68.8477	84.9982	68.8477	84.991	68.8477	85.186	68.8477	85.1781	68.8477	85.3694	68.8477	85.3612	68.8477	85.5387	68.8477	85.5308	68.8477	85.6836	68.8477	85.6767	68.8477	85.7945	68.8477	85.7894	68.8477	85.8638	68.8477	85.861	68.8477	85.8865
