"Directivity Index"			
"Sound Power DI"		"Early Reflections DI"	
"Frequency [Hz]"	"[dB] Directivity Index "	"Frequency [Hz]"	"[dB] Directivity Index "
20.5078	-6.12457	20.5078	-2.57124
21.9727	-4.00128	21.9727	-1.36148
23.4375	-4.68349	23.4375	-1.71979
24.9023	-4.5997	24.9023	-1.74992
26.3672	-3.55676	26.3672	-1.2475
27.832	-3.20177	27.832	-1.10027
29.2969	-2.86759	29.2969	-0.963607
30.7617	-2.38274	30.7617	-0.766089
32.2266	-2.2302	32.2266	-0.721843
33.6914	-1.98891	33.6914	-0.637921
35.1562	-1.80607	35.1562	-0.579414
36.6211	-1.61768	36.6211	-0.514762
38.0859	-1.52757	38.0859	-0.494586
39.5508	-1.4134	39.5508	-0.461277
41.0156	-1.31177	41.0156	-0.434065
42.4805	-1.13109	42.4805	-0.364329
43.9453	-1.09397	43.9453	-0.363805
45.4102	-1.00159	45.4102	-0.3337
46.875	-0.970146	46.875	-0.326997
48.3398	-0.92713	48.3398	-0.317209
51.2695	-0.83682	51.2695	-0.292531
52.7344	-0.808682	52.7344	-0.286485
54.1992	-0.758089	54.1992	-0.271896
55.6641	-0.703701	55.6641	-0.254578
58.5938	-0.593418	58.5938	-0.216291
60.0586	-0.562374	60.0586	-0.207133
62.9883	-0.505175	62.9883	-0.190475
64.4531	-0.493389	64.4531	-0.188212
67.3828	-0.458829	67.3828	-0.178618
68.8477	-0.436397	68.8477	-0.171283
71.7773	-0.415069	71.7773	-0.165806
74.707	-0.325737	74.707	-0.134026
77.6367	-0.269782	77.6367	-0.114543
79.1016	-0.265951	79.1016	-0.113771
82.0312	-0.255898	82.0312	-0.111667
84.9609	-0.243429	84.9609	-0.108274
87.8906	-0.193484	87.8906	-0.0879135
90.8203	-0.113913	90.8203	-0.0575812
95.2148	-0.0328506	95.2148	-0.0304942
98.1445	-0.101107	98.1445	-0.0546131
101.074	-0.0343897	101.074	-0.0266565
105.469	0.0571513	105.469	0.00561145
108.398	0.037386	108.398	0.000804078
112.793	0.0797158	112.793	0.0173902
117.188	0.109911	117.188	0.0288156
120.117	0.105449	120.117	0.0335721
124.512	0.173888	124.512	0.0680602
128.906	0.206278	128.906	0.0787472
133.301	0.226447	133.301	0.0890941
139.16	0.281958	139.16	0.11595
143.555	0.327723	143.555	0.137514
147.949	0.401218	147.949	0.169236
153.809	0.443565	153.809	0.182426
159.668	0.421549	159.668	0.177356
165.527	0.383459	165.527	0.172827
171.387	0.430838	171.387	0.202219
177.246	0.542212	177.246	0.251662
183.105	0.66638	183.105	0.310108
188.965	0.805843	188.965	0.35913
196.289	0.768496	196.289	0.333708
203.613	0.902375	203.613	0.40386
210.938	0.999732	210.938	0.448297
218.262	1.00118	218.262	0.439075
225.586	1.05618	225.586	0.485316
232.91	1.24949	232.91	0.548454
241.699	1.36401	241.699	0.581429
250.488	1.42219	250.488	0.615249
259.277	1.44825	259.277	0.619295
268.066	1.35608	268.066	0.629251
276.855	1.63647	276.855	0.705498
287.109	1.76123	287.109	0.732535
297.363	1.78844	297.363	0.802733
307.617	1.89899	307.617	0.772878
319.336	1.85047	319.336	0.788511
329.59	2.12284	329.59	0.853932
341.309	1.86572	341.309	0.809546
353.027	2.37161	353.027	1.00972
366.211	2.44204	366.211	1.00006
379.395	2.52458	379.395	0.958829
392.578	2.27873	392.578	0.895826
405.762	2.47542	405.762	1.06981
420.41	2.87976	420.41	1.115
435.059	2.56219	435.059	1.0089
451.172	3.00423	451.172	1.13229
465.82	2.90913	465.82	1.12716
483.398	3.03503	483.398	1.16986
499.512	3.11384	499.512	1.29964
517.09	3.54899	517.09	1.50852
536.133	4.53781	536.133	2.14253
555.176	4.80329	555.176	1.97411
574.219	4.2208	574.219	1.62817
594.727	3.69584	594.727	1.38699
615.234	3.84651	615.234	1.40729
637.207	3.64197	637.207	1.24136
659.18	3.92838	659.18	1.40446
682.617	3.65725	682.617	1.22017
707.52	3.14502	707.52	0.76937
732.422	2.20164	732.422	0.252317
757.324	2.15578	757.324	0.186064
785.156	3.99929	785.156	1.62196
811.523	4.49528	811.523	2.0497
840.82	4.69081	840.82	2.13381
870.117	4.53938	870.117	2.07421
900.879	4.6371	900.879	2.08246
933.105	4.61673	933.105	2.01378
965.332	4.70525	965.332	2.015
1,000.49	4.88303	1,000.49	2.01549
1,035.64	4.79949	1,035.64	1.94167
1,072.27	5.05211	1,072.27	2.07911
1,108.89	4.96117	1,108.89	2.06654
1,148.44	4.98031	1,148.44	2.02016
1,189.45	5.14593	1,189.45	2.16371
1,230.47	5.34599	1,230.47	2.23193
1,274.41	5.37702	1,274.41	2.24386
1,319.82	5.32763	1,319.82	2.20428
1,366.7	5.23746	1,366.7	2.1788
1,413.57	5.15898	1,413.57	2.19396
1,463.38	5.34051	1,463.38	2.39792
1,516.11	5.31322	1,516.11	2.36957
1,568.85	5.58175	1,568.85	2.42284
1,624.51	5.40862	1,624.51	2.52732
1,681.64	5.7024	1,681.64	2.52013
1,741.7	5.96995	1,741.7	2.6259
1,803.22	5.81349	1,803.22	2.78016
1,866.21	5.66525	1,866.21	2.71651
1,932.13	5.46193	1,932.13	2.48
1,999.51	5.39044	1,999.51	2.47341
2,069.82	4.73982	2,069.82	2.27983
2,143.07	4.98328	2,143.07	2.57951
2,219.24	5.6847	2,219.24	2.84284
2,296.88	5.18151	2,296.88	2.4336
2,378.91	4.51902	2,378.91	2.0278
2,462.4	3.99707	2,462.4	1.96076
2,548.83	3.47846	2,548.83	1.41851
2,639.65	3.63522	2,639.65	1.54362
2,731.93	3.38938	2,731.93	1.46946
2,828.61	3.25261	2,828.61	1.428
2,928.22	4.1465	2,928.22	2.07865
3,030.76	5.0541	3,030.76	2.70094
3,137.7	6.17795	3,137.7	3.42474
3,249.02	6.20365	3,249.02	3.61344
3,363.28	5.02902	3,363.28	3.47824
3,481.93	3.96688	3,481.93	3.29824
3,604.98	3.2064	3,604.98	2.80014
3,732.42	3.47255	3,732.42	2.70915
3,864.26	3.84054	3,864.26	2.32634
4,000.49	3.89506	4,000.49	1.42765
4,141.11	3.20502	4,141.11	0.810281
4,287.6	2.46237	4,287.6	0.240272
4,438.48	1.6146	4,438.48	-0.473688
4,595.21	1.68569	4,595.21	-0.470446
4,756.35	2.17176	4,756.35	-0.237925
4,924.8	2.42002	4,924.8	0.106491
5,097.66	2.7575	5,097.66	0.371117
5,277.83	2.89494	5,277.83	0.505399
5,463.87	3.24928	5,463.87	0.77249
5,657.23	3.90588	5,657.23	1.22708
5,856.45	4.56776	5,856.45	1.69005
6,062.99	4.98976	6,062.99	1.98094
6,276.86	5.32372	6,276.86	2.15056
6,498.05	5.83681	6,498.05	2.44423
6,726.56	6.3505	6,726.56	2.68286
6,963.87	6.64636	6,963.87	2.81915
7,209.96	6.77832	7,209.96	2.82122
7,464.84	6.65108	7,464.84	2.59869
7,727.05	6.44254	7,727.05	2.458
7,999.51	6.42406	7,999.51	2.43358
8,282.23	6.52394	8,282.23	2.49141
8,573.73	6.54296	8,573.73	2.56331
8,876.95	6.46968	8,876.95	2.44046
9,188.96	6.48977	9,188.96	2.50166
9,514.16	6.30713	9,514.16	2.40482
9,849.61	6.21623	9,849.61	2.34761
10,196.8	6.42263	10,196.8	2.39235
10,555.7	6.6456	10,555.7	2.53136
10,927.7	6.72484	10,927.7	2.65313
11,313	6.92107	11,313	2.85811
11,712.9	7.03663	11,712.9	3.11667
12,126	7.07102	12,126	3.14351
12,553.7	7.51358	12,553.7	3.28581
12,996.1	8.09206	12,996.1	3.53805
13,454.6	8.64247	13,454.6	3.80009
13,929.2	9.07305	13,929.2	4.14877
14,419.9	9.5135	14,419.9	4.53606
14,928.2	9.88155	14,928.2	4.85578
15,455.6	10.2242	15,455.6	5.14592
16,000.5	10.4227	16,000.5	5.36409
16,564.5	10.4157	16,564.5	5.46069
17,148.9	10.3455	17,148.9	5.45909
17,752.4	10.4785	17,752.4	5.39826
18,379.4	10.7196	18,379.4	5.3646
19,026.9	10.9652	19,026.9	5.39358
19,697.8	11.1134	19,697.8	5.38183
19,999.5	11.1295	19,999.5	5.36635
