"SPL Vertical"																																																																							
"On-Axis"		"10°"		"-10°"		"20°"		"-20°"		"30°"		"-30°"		"40°"		"-40°"		"50°"		"-50°"		"60°"		"-60°"		"70°"		"-70°"		"80°"		"-80°"		"90°"		"-90°"		"100°"		"-100°"		"110°"		"-110°"		"120°"		"-120°"		"130°"		"-130°"		"140°"		"-140°"		"150°"		"-150°"		"160°"		"-160°"		"170°"		"-170°"		"180°"	
"Frequency [Hz]"	"Sound Pessure Level [dB]  / [2.83V 1m] "	"Frequency [Hz]"	"Sound Pessure Level [dB]  / [2.83V 1m] "	"Frequency [Hz]"	"Sound Pessure Level [dB]  / [2.83V 1m] "	"Frequency [Hz]"	"Sound Pessure Level [dB]  / [2.83V 1m] "	"Frequency [Hz]"	"Sound Pessure Level [dB]  / [2.83V 1m] "	"Frequency [Hz]"	"Sound Pessure Level [dB]  / [2.83V 1m] "	"Frequency [Hz]"	"Sound Pessure Level [dB]  / [2.83V 1m] "	"Frequency [Hz]"	"Sound Pessure Level [dB]  / [2.83V 1m] "	"Frequency [Hz]"	"Sound Pessure Level [dB]  / [2.83V 1m] "	"Frequency [Hz]"	"Sound Pessure Level [dB]  / [2.83V 1m] "	"Frequency [Hz]"	"Sound Pessure Level [dB]  / [2.83V 1m] "	"Frequency [Hz]"	"Sound Pessure Level [dB]  / [2.83V 1m] "	"Frequency [Hz]"	"Sound Pessure Level [dB]  / [2.83V 1m] "	"Frequency [Hz]"	"Sound Pessure Level [dB]  / [2.83V 1m] "	"Frequency [Hz]"	"Sound Pessure Level [dB]  / [2.83V 1m] "	"Frequency [Hz]"	"Sound Pessure Level [dB]  / [2.83V 1m] "	"Frequency [Hz]"	"Sound Pessure Level [dB]  / [2.83V 1m] "	"Frequency [Hz]"	"Sound Pessure Level [dB]  / [2.83V 1m] "	"Frequency [Hz]"	"Sound Pessure Level [dB]  / [2.83V 1m] "	"Frequency [Hz]"	"Sound Pessure Level [dB]  / [2.83V 1m] "	"Frequency [Hz]"	"Sound Pessure Level [dB]  / [2.83V 1m] "	"Frequency [Hz]"	"Sound Pessure Level [dB]  / [2.83V 1m] "	"Frequency [Hz]"	"Sound Pessure Level [dB]  / [2.83V 1m] "	"Frequency [Hz]"	"Sound Pessure Level [dB]  / [2.83V 1m] "	"Frequency [Hz]"	"Sound Pessure Level [dB]  / [2.83V 1m] "	"Frequency [Hz]"	"Sound Pessure Level [dB]  / [2.83V 1m] "	"Frequency [Hz]"	"Sound Pessure Level [dB]  / [2.83V 1m] "	"Frequency [Hz]"	"Sound Pessure Level [dB]  / [2.83V 1m] "	"Frequency [Hz]"	"Sound Pessure Level [dB]  / [2.83V 1m] "	"Frequency [Hz]"	"Sound Pessure Level [dB]  / [2.83V 1m] "	"Frequency [Hz]"	"Sound Pessure Level [dB]  / [2.83V 1m] "	"Frequency [Hz]"	"Sound Pessure Level [dB]  / [2.83V 1m] "	"Frequency [Hz]"	"Sound Pessure Level [dB]  / [2.83V 1m] "	"Frequency [Hz]"	"Sound Pessure Level [dB]  / [2.83V 1m] "	"Frequency [Hz]"	"Sound Pessure Level [dB]  / [2.83V 1m] "	"Frequency [Hz]"	"Sound Pessure Level [dB]  / [2.83V 1m] "
20.5078	43.7571	20.5078	43.6698	20.5078	43.8244	20.5078	43.5637	20.5078	43.8729	20.5078	43.4434	20.5078	43.906	20.5078	43.3163	20.5078	43.9273	20.5078	43.1916	20.5078	43.9403	20.5078	43.0792	20.5078	43.9476	20.5078	42.9879	20.5078	43.9508	20.5078	42.9244	20.5078	43.9506	20.5078	42.8925	20.5078	43.9476	20.5078	42.8929	20.5078	43.9415	20.5078	42.9239	20.5078	43.9316	20.5078	42.9816	20.5078	43.9162	20.5078	43.061	20.5078	43.893	20.5078	43.1565	20.5078	43.8591	20.5078	43.2622	20.5078	43.8119	20.5078	43.372	20.5078	43.7499	20.5078	43.4802	20.5078	43.6728	20.5078	43.5819
21.9727	33.5376	21.9727	32.8367	21.9727	34.1817	21.9727	32.0905	21.9727	34.7558	21.9727	31.307	21.9727	35.2472	21.9727	30.4898	21.9727	35.6454	21.9727	29.6378	21.9727	35.9437	21.9727	28.7467	21.9727	36.1388	21.9727	27.8106	21.9727	36.2302	21.9727	26.826	21.9727	36.2182	21.9727	25.7999	21.9727	36.1022	21.9727	24.767	21.9727	35.8789	21.9727	23.8206	21.9727	35.5419	21.9727	23.151	21.9727	35.0819	21.9727	23.0213	21.9727	34.4882	21.9727	23.5921	21.9727	33.7499	21.9727	24.7501	21.9727	32.8585	21.9727	26.2178	21.9727	31.8084	21.9727	27.7596	21.9727	30.5996	21.9727	29.2412
23.4375	42.5617	23.4375	42.3259	23.4375	42.7435	23.4375	42.0393	23.4375	42.8702	23.4375	41.7072	23.4375	42.9421	23.4375	41.3374	23.4375	42.9607	23.4375	40.9404	23.4375	42.9279	23.4375	40.5289	23.4375	42.8461	23.4375	40.1176	23.4375	42.7177	23.4375	39.7232	23.4375	42.5454	23.4375	39.3632	23.4375	42.3325	23.4375	39.055	23.4375	42.0828	23.4375	38.8148	23.4375	41.8007	23.4375	38.6553	23.4375	41.4916	23.4375	38.5845	23.4375	41.1609	23.4375	38.6044	23.4375	40.8151	23.4375	38.7106	23.4375	40.4607	23.4375	38.8932	23.4375	40.1057	23.4375	39.1389	23.4375	39.7592	23.4375	39.4325
24.9023	38.303	24.9023	37.8121	24.9023	38.7233	24.9023	37.2559	24.9023	39.0707	24.9023	36.644	24.9023	39.3442	24.9023	35.9921	24.9023	39.5436	24.9023	35.3225	24.9023	39.6685	24.9023	34.6645	24.9023	39.7189	24.9023	34.0521	24.9023	39.695	24.9023	33.5207	24.9023	39.598	24.9023	33.1012	24.9023	39.4298	24.9023	32.8163	24.9023	39.1925	24.9023	32.6772	24.9023	38.8883	24.9023	32.6857	24.9023	38.5191	24.9023	32.8365	24.9023	38.0868	24.9023	33.1195	24.9023	37.5945	24.9023	33.5199	24.9023	37.0476	24.9023	34.0178	24.9023	36.4559	24.9023	34.5883	24.9023	35.8342	24.9023	35.2032
26.3672	42.9149	26.3672	42.907	26.3672	42.9466	26.3672	42.9178	26.3672	43.0058	26.3672	42.942	26.3672	43.093	26.3672	42.9746	26.3672	43.2053	26.3672	43.0117	26.3672	43.3356	26.3672	43.0503	26.3672	43.4739	26.3672	43.0884	26.3672	43.6091	26.3672	43.1249	26.3672	43.73	26.3672	43.1595	26.3672	43.8279	26.3672	43.1925	26.3672	43.8964	26.3672	43.2247	26.3672	43.9327	26.3672	43.2576	26.3672	43.9369	26.3672	43.2928	26.3672	43.912	26.3672	43.3325	26.3672	43.8633	26.3672	43.3784	26.3672	43.7974	26.3672	43.4323	26.3672	43.7215	26.3672	43.4947	26.3672	43.6423	26.3672	43.5654
27.832	44.963	27.832	44.8829	27.832	45.0349	27.832	44.7953	27.832	45.0978	27.832	44.7012	27.832	45.1505	27.832	44.6019	27.832	45.1914	27.832	44.4988	27.832	45.2183	27.832	44.3936	27.832	45.2281	27.832	44.2885	27.832	45.2176	27.832	44.1855	27.832	45.1837	27.832	44.0875	27.832	45.1245	27.832	43.9972	27.832	45.0392	27.832	43.9179	27.832	44.9295	27.832	43.8532	27.832	44.7987	27.832	43.8067	27.832	44.6525	27.832	43.7821	27.832	44.4978	27.832	43.7825	27.832	44.3426	27.832	43.8104	27.832	44.1951	27.832	43.8671	27.832	44.0629	27.832	43.952
29.2969	45.9224	29.2969	45.9739	29.2969	45.8798	29.2969	46.0296	29.2969	45.8493	29.2969	46.0839	29.2969	45.8317	29.2969	46.1314	29.2969	45.8263	29.2969	46.1672	29.2969	45.8302	29.2969	46.1879	29.2969	45.8398	29.2969	46.1918	29.2969	45.8509	29.2969	46.1787	29.2969	45.8595	29.2969	46.1502	29.2969	45.8627	29.2969	46.109	29.2969	45.8587	29.2969	46.0588	29.2969	45.8476	29.2969	46.0038	29.2969	45.8306	29.2969	45.948	29.2969	45.8103	29.2969	45.8951	29.2969	45.7898	29.2969	45.8485	29.2969	45.7725	29.2969	45.8104	29.2969	45.7612	29.2969	45.7823	29.2969	45.7581	29.2969	45.7649
30.7617	50.1952	30.7617	50.2652	30.7617	50.1118	30.7617	50.3185	30.7617	50.0186	30.7617	50.3521	30.7617	49.9195	30.7617	50.3641	30.7617	49.8176	30.7617	50.3533	30.7617	49.7156	30.7617	50.3195	30.7617	49.6153	30.7617	50.2634	30.7617	49.5181	30.7617	50.1865	30.7617	49.4246	30.7617	50.0911	30.7617	49.3353	30.7617	49.9801	30.7617	49.251	30.7617	49.8571	30.7617	49.1729	30.7617	49.7263	30.7617	49.1032	30.7617	49.5923	30.7617	49.0449	30.7617	49.4601	30.7617	49.0021	30.7617	49.3351	30.7617	48.9787	30.7617	49.2224	30.7617	48.9781	30.7617	49.1269	30.7617	49.0026	30.7617	49.0526
32.2266	52.4808	32.2266	52.5431	32.2266	52.4129	32.2266	52.5973	32.2266	52.3419	32.2266	52.6412	32.2266	52.2702	32.2266	52.673	32.2266	52.2003	32.2266	52.691	32.2266	52.1341	32.2266	52.6943	32.2266	52.0733	32.2266	52.6821	32.2266	52.0189	32.2266	52.6547	32.2266	51.9715	32.2266	52.6127	32.2266	51.9314	32.2266	52.5574	32.2266	51.8986	32.2266	52.491	32.2266	51.8735	32.2266	52.416	32.2266	51.8564	32.2266	52.3355	32.2266	51.8479	32.2266	52.2529	32.2266	51.8491	32.2266	52.1717	32.2266	51.8609	32.2266	52.0951	32.2266	51.8842	32.2266	52.0263	32.2266	51.9197	32.2266	51.9673
33.6914	54.6672	33.6914	54.765	33.6914	54.5704	33.6914	54.8599	33.6914	54.4778	33.6914	54.9478	33.6914	54.3918	33.6914	55.0248	33.6914	54.3136	33.6914	55.0872	33.6914	54.2437	33.6914	55.1322	33.6914	54.182	33.6914	55.1578	33.6914	54.1283	33.6914	55.163	33.6914	54.0826	33.6914	55.1473	33.6914	54.0455	33.6914	55.1112	33.6914	54.0184	33.6914	55.0559	33.6914	54.0031	33.6914	54.9832	33.6914	54.0019	33.6914	54.8956	33.6914	54.0169	33.6914	54.7961	33.6914	54.0498	33.6914	54.6882	33.6914	54.1014	33.6914	54.5758	33.6914	54.1711	33.6914	54.4635	33.6914	54.2569	33.6914	54.3557
35.1562	57.8028	35.1562	57.8809	35.1562	57.7245	35.1562	57.955	35.1562	57.6494	35.1562	58.0219	35.1562	57.5805	35.1562	58.0784	35.1562	57.5199	35.1562	58.1225	35.1562	57.4687	35.1562	58.1525	35.1562	57.4271	35.1562	58.1677	35.1562	57.3947	35.1562	58.1677	35.1562	57.3707	35.1562	58.153	35.1562	57.3546	35.1562	58.1243	35.1562	57.3461	35.1562	58.0831	35.1562	57.3455	35.1562	58.0308	35.1562	57.3535	35.1562	57.9695	35.1562	57.3709	35.1562	57.9012	35.1562	57.3984	35.1562	57.8283	35.1562	57.4365	35.1562	57.7534	35.1562	57.4849	35.1562	57.6792	35.1562	57.5426	35.1562	57.6081
36.6211	59.7962	36.6211	59.8668	36.6211	59.7208	36.6211	59.9297	36.6211	59.6442	36.6211	59.9821	36.6211	59.5695	36.6211	60.0222	36.6211	59.4998	36.6211	60.0485	36.6211	59.4374	36.6211	60.0605	36.6211	59.3839	36.6211	60.058	36.6211	59.34	36.6211	60.0415	36.6211	59.3056	36.6211	60.0119	36.6211	59.2806	36.6211	59.9705	36.6211	59.2646	36.6211	59.919	36.6211	59.2573	36.6211	59.8594	36.6211	59.2588	36.6211	59.7937	36.6211	59.2693	36.6211	59.7245	36.6211	59.2888	36.6211	59.6539	36.6211	59.3176	36.6211	59.5843	36.6211	59.3555	36.6211	59.518	36.6211	59.4022	36.6211	59.4567
38.0859	62.1615	38.0859	62.2311	38.0859	62.0865	38.0859	62.2921	38.0859	62.0094	38.0859	62.342	38.0859	61.9335	38.0859	62.3787	38.0859	61.8616	38.0859	62.4008	38.0859	61.7961	38.0859	62.4077	38.0859	61.7384	38.0859	62.3994	38.0859	61.6894	38.0859	62.3766	38.0859	61.6491	38.0859	62.3405	38.0859	61.6176	38.0859	62.2925	38.0859	61.5947	38.0859	62.2346	38.0859	61.5804	38.0859	62.1689	38.0859	61.5751	38.0859	62.098	38.0859	61.5791	38.0859	62.0241	38.0859	61.5929	38.0859	61.95	38.0859	61.6169	38.0859	61.8779	38.0859	61.6512	38.0859	61.8102	38.0859	61.6954	38.0859	61.7488
39.5508	64.3649	39.5508	64.4234	39.5508	64.2988	39.5508	64.4719	39.5508	64.2279	39.5508	64.5082	39.5508	64.155	39.5508	64.5308	39.5508	64.0828	39.5508	64.5389	39.5508	64.0134	39.5508	64.5322	39.5508	63.9485	39.5508	64.5111	39.5508	63.8892	39.5508	64.4764	39.5508	63.8363	39.5508	64.4296	39.5508	63.7902	39.5508	64.3723	39.5508	63.7515	39.5508	64.3066	39.5508	63.721	39.5508	64.2345	39.5508	63.6994	39.5508	64.1587	39.5508	63.6879	39.5508	64.0814	39.5508	63.6876	39.5508	64.0052	39.5508	63.6993	39.5508	63.9328	39.5508	63.7236	39.5508	63.8663	39.5508	63.7601	39.5508	63.8082
41.0156	66.2992	41.0156	66.3499	41.0156	66.2414	41.0156	66.3912	41.0156	66.1786	41.0156	66.4214	41.0156	66.1136	41.0156	66.4393	41.0156	66.0487	41.0156	66.4445	41.0156	65.9859	41.0156	66.4367	41.0156	65.9272	41.0156	66.4166	41.0156	65.8736	41.0156	66.385	41.0156	65.8263	41.0156	66.3433	41.0156	65.7858	41.0156	66.2932	41.0156	65.7527	41.0156	66.2363	41.0156	65.7278	41.0156	66.1749	41.0156	65.7115	41.0156	66.1108	41.0156	65.7047	41.0156	66.0462	41.0156	65.7077	41.0156	65.9828	41.0156	65.7208	41.0156	65.9226	41.0156	65.7439	41.0156	65.8672	41.0156	65.7766	41.0156	65.8181
42.4805	68.425	42.4805	68.4645	42.4805	68.3745	42.4805	68.4915	42.4805	68.3152	42.4805	68.5047	42.4805	68.249	42.4805	68.5033	42.4805	68.178	42.4805	68.487	42.4805	68.1042	42.4805	68.4561	42.4805	68.0291	42.4805	68.4114	42.4805	67.9543	42.4805	68.3541	42.4805	67.8811	42.4805	68.286	42.4805	67.8107	42.4805	68.209	42.4805	67.7448	42.4805	68.1257	42.4805	67.6851	42.4805	68.0387	42.4805	67.6338	42.4805	67.9509	42.4805	67.5929	42.4805	67.8654	42.4805	67.5647	42.4805	67.7852	42.4805	67.5509	42.4805	67.7132	42.4805	67.5526	42.4805	67.652	42.4805	67.5703	42.4805	67.6038
43.9453	70.1834	43.9453	70.2082	43.9453	70.1493	43.9453	70.2228	43.9453	70.1072	43.9453	70.2263	43.9453	70.0583	43.9453	70.2182	43.9453	70.0038	43.9453	70.1982	43.9453	69.9448	43.9453	70.1664	43.9453	69.8822	43.9453	70.1235	43.9453	69.817	43.9453	70.0703	43.9453	69.7501	43.9453	70.0081	43.9453	69.6829	43.9453	69.9385	43.9453	69.6168	43.9453	69.8635	43.9453	69.554	43.9453	69.7854	43.9453	69.4969	43.9453	69.7068	43.9453	69.4482	43.9453	69.6306	43.9453	69.4105	43.9453	69.5596	43.9453	69.3863	43.9453	69.497	43.9453	69.3772	43.9453	69.4454	43.9453	69.3842	43.9453	69.4072
45.4102	71.702	45.4102	71.722	45.4102	71.677	45.4102	71.7362	45.4102	71.6478	45.4102	71.7438	45.4102	71.6149	45.4102	71.7442	45.4102	71.5789	45.4102	71.7369	45.4102	71.54	45.4102	71.7216	45.4102	71.4985	45.4102	71.6985	45.4102	71.4547	45.4102	71.6677	45.4102	71.4093	45.4102	71.6299	45.4102	71.363	45.4102	71.586	45.4102	71.3172	45.4102	71.5369	45.4102	71.2736	45.4102	71.4842	45.4102	71.2344	45.4102	71.4293	45.4102	71.2018	45.4102	71.3742	45.4102	71.1779	45.4102	71.3211	45.4102	71.1646	45.4102	71.2723	45.4102	71.1632	45.4102	71.2301	45.4102	71.1741	45.4102	71.1968
46.875	72.9573	46.875	72.9784	46.875	72.9384	46.875	73.0002	46.875	72.9228	46.875	73.0214	46.875	72.9116	46.875	73.0407	46.875	72.9052	46.875	73.0573	46.875	72.9038	46.875	73.0706	46.875	72.9071	46.875	73.0807	46.875	72.9145	46.875	73.0876	46.875	72.9252	46.875	73.0919	46.875	72.9387	46.875	73.0943	46.875	72.9542	46.875	73.0954	46.875	72.9713	46.875	73.0956	46.875	72.9892	46.875	73.0952	46.875	73.0074	46.875	73.0944	46.875	73.0251	46.875	73.0927	46.875	73.0417	46.875	73.0898	46.875	73.0563	46.875	73.0851	46.875	73.0685	46.875	73.0781
48.3398	74.5429	48.3398	74.5694	48.3398	74.5096	48.3398	74.5876	48.3398	74.4715	48.3398	74.5964	48.3398	74.4306	48.3398	74.5952	48.3398	74.389	48.3398	74.5839	48.3398	74.3488	48.3398	74.5631	48.3398	74.3114	48.3398	74.534	48.3398	74.2781	48.3398	74.4979	48.3398	74.2496	48.3398	74.4568	48.3398	74.2261	48.3398	74.4128	48.3398	74.2076	48.3398	74.3681	48.3398	74.1935	48.3398	74.3251	48.3398	74.183	48.3398	74.2854	48.3398	74.1756	48.3398	74.2508	48.3398	74.1705	48.3398	74.2222	48.3398	74.1675	48.3398	74.2001	48.3398	74.1667	48.3398	74.1843	48.3398	74.1686	48.3398	74.1741
51.2695	77.086	51.2695	77.0896	51.2695	77.0745	51.2695	77.0849	51.2695	77.0559	51.2695	77.0714	51.2695	77.0309	51.2695	77.0492	51.2695	77.0002	51.2695	77.0184	51.2695	76.9647	51.2695	76.9797	51.2695	76.925	51.2695	76.934	51.2695	76.882	51.2695	76.8826	51.2695	76.8363	51.2695	76.8271	51.2695	76.7888	51.2695	76.7696	51.2695	76.7403	51.2695	76.712	51.2695	76.6921	51.2695	76.6567	51.2695	76.6454	51.2695	76.6058	51.2695	76.6015	51.2695	76.5615	51.2695	76.5621	51.2695	76.5256	51.2695	76.5287	51.2695	76.4994	51.2695	76.5029	51.2695	76.484	51.2695	76.4862	51.2695	76.4797
52.7344	78.38	52.7344	78.3769	52.7344	78.3746	52.7344	78.365	52.7344	78.3608	52.7344	78.3445	52.7344	78.339	52.7344	78.3154	52.7344	78.3096	52.7344	78.2782	52.7344	78.273	52.7344	78.2336	52.7344	78.2298	52.7344	78.1824	52.7344	78.1807	52.7344	78.126	52.7344	78.1265	52.7344	78.0657	52.7344	78.0685	52.7344	78.0033	52.7344	78.0079	52.7344	77.9409	52.7344	77.9466	52.7344	77.8804	52.7344	77.8865	52.7344	77.8241	52.7344	77.8299	52.7344	77.7743	52.7344	77.7793	52.7344	77.733	52.7344	77.7369	52.7344	77.7022	52.7344	77.7047	52.7344	77.6833	52.7344	77.6845	52.7344	77.6773
54.1992	79.5016	54.1992	79.494	54.1992	79.502	54.1992	79.4792	54.1992	79.4953	54.1992	79.4574	54.1992	79.4814	54.1992	79.4287	54.1992	79.4606	54.1992	79.3936	54.1992	79.433	54.1992	79.3529	54.1992	79.3989	54.1992	79.3072	54.1992	79.3588	54.1992	79.2579	54.1992	79.3134	54.1992	79.2062	54.1992	79.2639	54.1992	79.1537	54.1992	79.2114	54.1992	79.1022	54.1992	79.1578	54.1992	79.0534	54.1992	79.1048	54.1992	79.0091	54.1992	79.0545	54.1992	78.971	54.1992	79.009	54.1992	78.9408	54.1992	78.9701	54.1992	78.9197	54.1992	78.9396	54.1992	78.9086	54.1992	78.9187	54.1992	78.9082
55.6641	80.6462	55.6641	80.6355	55.6641	80.65	55.6641	80.618	55.6641	80.6468	55.6641	80.5938	55.6641	80.6366	55.6641	80.5632	55.6641	80.6195	55.6641	80.5269	55.6641	80.5956	55.6641	80.4855	55.6641	80.5652	55.6641	80.4401	55.6641	80.5285	55.6641	80.3918	55.6641	80.4864	55.6641	80.342	55.6641	80.4397	55.6641	80.2923	55.6641	80.3897	55.6641	80.2443	55.6641	80.3381	55.6641	80.1998	55.6641	80.2867	55.6641	80.1603	55.6641	80.2375	55.6641	80.1275	55.6641	80.1924	55.6641	80.1026	55.6641	80.1531	55.6641	80.0867	55.6641	80.1212	55.6641	80.0805	55.6641	80.098	55.6641	80.0843
58.5938	82.7772	58.5938	82.7625	58.5938	82.785	58.5938	82.741	58.5938	82.7859	58.5938	82.713	58.5938	82.7801	58.5938	82.6793	58.5938	82.7679	58.5938	82.6406	58.5938	82.7496	58.5938	82.598	58.5938	82.7258	58.5938	82.5528	58.5938	82.697	58.5938	82.5065	58.5938	82.6638	58.5938	82.4608	58.5938	82.6269	58.5938	82.4172	58.5938	82.5873	58.5938	82.3775	58.5938	82.5459	58.5938	82.3432	58.5938	82.5037	58.5938	82.3156	58.5938	82.4618	58.5938	82.2957	58.5938	82.4215	58.5938	82.2842	58.5938	82.3841	58.5938	82.2814	58.5938	82.3507	58.5938	82.2872	58.5938	82.3227	58.5938	82.3012
60.0586	83.7615	60.0586	83.7422	60.0586	83.7729	60.0586	83.7151	60.0586	83.776	60.0586	83.681	60.0586	83.7711	60.0586	83.6405	60.0586	83.7584	60.0586	83.5948	60.0586	83.7382	60.0586	83.5451	60.0586	83.7111	60.0586	83.493	60.0586	83.6778	60.0586	83.4401	60.0586	83.6391	60.0586	83.3883	60.0586	83.596	60.0586	83.3394	60.0586	83.5497	60.0586	83.2952	60.0586	83.5013	60.0586	83.2573	60.0586	83.4521	60.0586	83.2272	60.0586	83.4034	60.0586	83.206	60.0586	83.3568	60.0586	83.1942	60.0586	83.3134	60.0586	83.1923	60.0586	83.2748	60.0586	83.2001	60.0586	83.2422	60.0586	83.217
62.9883	85.3921	62.9883	85.3655	62.9883	85.4095	62.9883	85.3305	62.9883	85.4175	62.9883	85.288	62.9883	85.4159	62.9883	85.2391	62.9883	85.405	62.9883	85.1851	62.9883	85.3852	62.9883	85.1278	62.9883	85.357	62.9883	85.0689	62.9883	85.3214	62.9883	85.0103	62.9883	85.2794	62.9883	84.9541	62.9883	85.2322	62.9883	84.9021	62.9883	85.1811	62.9883	84.8562	62.9883	85.1273	62.9883	84.8181	62.9883	85.0725	62.9883	84.7891	62.9883	85.0178	62.9883	84.7702	62.9883	84.965	62.9883	84.7619	62.9883	84.9153	62.9883	84.7644	62.9883	84.8702	62.9883	84.7773	62.9883	84.8313	62.9883	84.7999
64.4531	86.0669	64.4531	86.0372	64.4531	86.0872	64.4531	85.999	64.4531	86.0976	64.4531	85.9531	64.4531	86.0981	64.4531	85.901	64.4531	86.0887	64.4531	85.8442	64.4531	86.0699	64.4531	85.7843	64.4531	86.0424	64.4531	85.7234	64.4531	86.0071	64.4531	85.6635	64.4531	85.965	64.4531	85.6065	64.4531	85.9175	64.4531	85.5546	64.4531	85.8659	64.4531	85.5094	64.4531	85.8114	64.4531	85.4726	64.4531	85.7556	64.4531	85.4455	64.4531	85.6997	64.4531	85.429	64.4531	85.6453	64.4531	85.4235	64.4531	85.5937	64.4531	85.429	64.4531	85.5464	64.4531	85.4449	64.4531	85.5049	64.4531	85.4706
67.3828	87.0498	67.3828	87.0148	67.3828	87.0748	67.3828	86.9707	67.3828	87.0892	67.3828	86.9189	67.3828	87.0928	67.3828	86.8609	67.3828	87.0856	67.3828	86.7986	67.3828	87.068	67.3828	86.7338	67.3828	87.041	67.3828	86.6688	67.3828	87.0054	67.3828	86.6059	67.3828	86.9627	67.3828	86.547	67.3828	86.914	67.3828	86.4944	67.3828	86.8608	67.3828	86.4499	67.3828	86.8046	67.3828	86.415	67.3828	86.7467	67.3828	86.3909	67.3828	86.6884	67.3828	86.3782	67.3828	86.631	67.3828	86.3773	67.3828	86.576	67.3828	86.3878	67.3828	86.5248	67.3828	86.409	67.3828	86.4789	67.3828	86.4398
68.8477	87.3776	68.8477	87.3397	68.8477	87.4052	68.8477	87.2927	68.8477	87.4218	68.8477	87.2377	68.8477	87.4271	68.8477	87.1767	68.8477	87.4212	68.8477	87.1114	68.8477	87.4045	68.8477	87.0441	68.8477	87.3779	68.8477	86.9769	68.8477	87.3424	68.8477	86.9122	68.8477	87.2994	68.8477	86.8523	68.8477	87.2502	68.8477	86.7992	68.8477	87.1962	68.8477	86.7548	68.8477	87.1389	68.8477	86.7206	68.8477	87.0796	68.8477	86.6978	68.8477	87.0197	68.8477	86.687	68.8477	86.9604	68.8477	86.6884	68.8477	86.9032	68.8477	86.7014	68.8477	86.8495	68.8477	86.7254	68.8477	86.8009	68.8477	86.759
