"SPL Vertical"																																																																							
"On-Axis"		"10°"		"-10°"		"20°"		"-20°"		"30°"		"-30°"		"40°"		"-40°"		"50°"		"-50°"		"60°"		"-60°"		"70°"		"-70°"		"80°"		"-80°"		"90°"		"-90°"		"100°"		"-100°"		"110°"		"-110°"		"120°"		"-120°"		"130°"		"-130°"		"140°"		"-140°"		"150°"		"-150°"		"160°"		"-160°"		"170°"		"-170°"		"180°"	
"Frequency [Hz]"	"Sound Pessure Level [dB]  / [2.83V 1m] "	"Frequency [Hz]"	"Sound Pessure Level [dB]  / [2.83V 1m] "	"Frequency [Hz]"	"Sound Pessure Level [dB]  / [2.83V 1m] "	"Frequency [Hz]"	"Sound Pessure Level [dB]  / [2.83V 1m] "	"Frequency [Hz]"	"Sound Pessure Level [dB]  / [2.83V 1m] "	"Frequency [Hz]"	"Sound Pessure Level [dB]  / [2.83V 1m] "	"Frequency [Hz]"	"Sound Pessure Level [dB]  / [2.83V 1m] "	"Frequency [Hz]"	"Sound Pessure Level [dB]  / [2.83V 1m] "	"Frequency [Hz]"	"Sound Pessure Level [dB]  / [2.83V 1m] "	"Frequency [Hz]"	"Sound Pessure Level [dB]  / [2.83V 1m] "	"Frequency [Hz]"	"Sound Pessure Level [dB]  / [2.83V 1m] "	"Frequency [Hz]"	"Sound Pessure Level [dB]  / [2.83V 1m] "	"Frequency [Hz]"	"Sound Pessure Level [dB]  / [2.83V 1m] "	"Frequency [Hz]"	"Sound Pessure Level [dB]  / [2.83V 1m] "	"Frequency [Hz]"	"Sound Pessure Level [dB]  / [2.83V 1m] "	"Frequency [Hz]"	"Sound Pessure Level [dB]  / [2.83V 1m] "	"Frequency [Hz]"	"Sound Pessure Level [dB]  / [2.83V 1m] "	"Frequency [Hz]"	"Sound Pessure Level [dB]  / [2.83V 1m] "	"Frequency [Hz]"	"Sound Pessure Level [dB]  / [2.83V 1m] "	"Frequency [Hz]"	"Sound Pessure Level [dB]  / [2.83V 1m] "	"Frequency [Hz]"	"Sound Pessure Level [dB]  / [2.83V 1m] "	"Frequency [Hz]"	"Sound Pessure Level [dB]  / [2.83V 1m] "	"Frequency [Hz]"	"Sound Pessure Level [dB]  / [2.83V 1m] "	"Frequency [Hz]"	"Sound Pessure Level [dB]  / [2.83V 1m] "	"Frequency [Hz]"	"Sound Pessure Level [dB]  / [2.83V 1m] "	"Frequency [Hz]"	"Sound Pessure Level [dB]  / [2.83V 1m] "	"Frequency [Hz]"	"Sound Pessure Level [dB]  / [2.83V 1m] "	"Frequency [Hz]"	"Sound Pessure Level [dB]  / [2.83V 1m] "	"Frequency [Hz]"	"Sound Pessure Level [dB]  / [2.83V 1m] "	"Frequency [Hz]"	"Sound Pessure Level [dB]  / [2.83V 1m] "	"Frequency [Hz]"	"Sound Pessure Level [dB]  / [2.83V 1m] "	"Frequency [Hz]"	"Sound Pessure Level [dB]  / [2.83V 1m] "	"Frequency [Hz]"	"Sound Pessure Level [dB]  / [2.83V 1m] "	"Frequency [Hz]"	"Sound Pessure Level [dB]  / [2.83V 1m] "	"Frequency [Hz]"	"Sound Pessure Level [dB]  / [2.83V 1m] "	"Frequency [Hz]"	"Sound Pessure Level [dB]  / [2.83V 1m] "
20.5078	63.2843	20.5078	63.281	20.5078	63.3254	20.5078	63.3175	20.5078	63.4035	20.5078	63.3965	20.5078	63.5185	20.5078	63.5212	20.5078	63.6717	20.5078	63.6942	20.5078	63.8643	20.5078	63.9174	20.5078	64.0977	20.5078	64.1906	20.5078	64.3725	20.5078	64.511	20.5078	64.6877	20.5078	64.8729	20.5078	65.0394	20.5078	65.2669	20.5078	65.4206	20.5078	65.6801	20.5078	65.8202	20.5078	66.0967	20.5078	66.2228	20.5078	66.4984	20.5078	66.6099	20.5078	66.8658	20.5078	66.961	20.5078	67.1796	20.5078	67.2556	20.5078	67.4224	20.5078	67.4758	20.5078	67.5802	20.5078	67.6078	20.5078	67.6433
23.4375	61.1371	23.4375	61.0229	23.4375	61.2483	23.4375	60.9141	23.4375	61.3506	23.4375	60.8223	23.4375	61.4414	23.4375	60.7619	23.4375	61.5207	23.4375	60.7491	23.4375	61.5915	23.4375	60.8002	23.4375	61.6601	23.4375	60.9288	23.4375	61.7362	23.4375	61.1427	23.4375	61.833	23.4375	61.4407	23.4375	61.9652	23.4375	61.8112	23.4375	62.1468	23.4375	62.2334	23.4375	62.3863	23.4375	62.6792	23.4375	62.6815	23.4375	63.1175	23.4375	63.0173	23.4375	63.5172	23.4375	63.3669	23.4375	63.8503	23.4375	63.6965	23.4375	64.0938	23.4375	63.9722	23.4375	64.2315	23.4375	64.1651	23.4375	64.255
26.3672	62.7382	26.3672	62.6484	26.3672	62.8345	26.3672	62.5763	26.3672	62.9298	26.3672	62.5355	26.3672	63.0202	26.3672	62.5412	26.3672	63.1064	26.3672	62.608	26.3672	63.1936	26.3672	62.7479	26.3672	63.2917	26.3672	62.9671	26.3672	63.4146	26.3672	63.2643	26.3672	63.5785	26.3672	63.6302	26.3672	63.7978	26.3672	64.0479	26.3672	64.0805	26.3672	64.4955	26.3672	64.4237	26.3672	64.948	26.3672	64.8116	26.3672	65.38	26.3672	65.2179	26.3672	65.7672	26.3672	65.6107	26.3672	66.0881	26.3672	65.9582	26.3672	66.3244	26.3672	66.2333	26.3672	66.4625	26.3672	66.4159	26.3672	66.4938
29.2969	63.1844	29.2969	63.0906	29.2969	63.281	29.2969	63.0121	29.2969	63.372	29.2969	62.9643	29.2969	63.4534	29.2969	62.9643	29.2969	63.5261	29.2969	63.0285	29.2969	63.5963	29.2969	63.1695	29.2969	63.6752	29.2969	63.3931	29.2969	63.7783	29.2969	63.6965	29.2969	63.9234	29.2969	64.068	29.2969	64.126	29.2969	64.4884	29.2969	64.3946	29.2969	64.934	29.2969	64.7266	29.2969	65.3791	29.2969	65.1063	29.2969	65.7984	29.2969	65.5074	29.2969	66.1688	29.2969	65.8985	29.2969	66.4701	29.2969	66.2484	29.2969	66.6857	29.2969	66.5302	29.2969	66.8036	29.2969	66.7238	29.2969	66.8167
32.2266	66.4518	32.2266	66.4836	32.2266	66.45	32.2266	66.5514	32.2266	66.474	32.2266	66.662	32.2266	66.5228	32.2266	66.8221	32.2266	66.5987	32.2266	67.0361	32.2266	66.707	32.2266	67.3054	32.2266	66.8558	32.2266	67.6272	32.2266	67.054	32.2266	67.9942	32.2266	67.3095	32.2266	68.3952	32.2266	67.626	32.2266	68.8154	32.2266	68.0005	32.2266	69.2381	32.2266	68.422	32.2266	69.6449	32.2266	68.8719	32.2266	70.0173	32.2266	69.3258	32.2266	70.3373	32.2266	69.7571	32.2266	70.5885	32.2266	70.1399	32.2266	70.7568	32.2266	70.4523	32.2266	70.8313	32.2266	70.6777	32.2266	70.8054
35.1563	71.59	35.1563	71.6015	35.1563	71.6048	35.1563	71.6421	35.1563	71.6439	35.1563	71.7153	35.1563	71.7068	35.1563	71.8245	35.1563	71.7943	35.1563	71.9725	35.1563	71.9085	35.1563	72.1606	35.1563	72.0528	35.1563	72.3883	35.1563	72.2304	35.1563	72.6525	35.1563	72.4443	35.1563	72.9473	35.1563	72.6955	35.1563	73.2641	35.1563	72.9815	35.1563	73.5914	35.1563	73.2956	35.1563	73.9158	35.1563	73.6261	35.1563	74.2223	35.1563	73.9569	35.1563	74.4954	35.1563	74.269	35.1563	74.7199	35.1563	74.5433	35.1563	74.8825	35.1563	74.762	35.1563	74.9723	35.1563	74.9114	35.1563	74.9826
38.0859	73.9055	38.0859	73.8906	38.0859	73.9421	38.0859	73.8995	38.0859	73.9985	38.0859	73.935	38.0859	74.0737	38.0859	73.9998	38.0859	74.1674	38.0859	74.0962	38.0859	74.2801	38.0859	74.2258	38.0859	74.4127	38.0859	74.3891	38.0859	74.5666	38.0859	74.5848	38.0859	74.743	38.0859	74.8094	38.0859	74.942	38.0859	75.0574	38.0859	75.162	38.0859	75.3204	38.0859	75.3986	38.0859	75.588	38.0859	75.6439	38.0859	75.8479	38.0859	75.8867	38.0859	76.0866	38.0859	76.1131	38.0859	76.2906	38.0859	76.3085	38.0859	76.4475	38.0859	76.4587	38.0859	76.5471	38.0859	76.5527	38.0859	76.583
41.0156	74.1776	41.0156	74.1519	41.0156	74.2227	41.0156	74.1475	41.0156	74.2858	41.0156	74.1663	41.0156	74.3655	41.0156	74.2101	41.0156	74.4608	41.0156	74.2805	41.0156	74.571	41.0156	74.3786	41.0156	74.6958	41.0156	74.5048	41.0156	74.8348	41.0156	74.6583	41.0156	74.9876	41.0156	74.8367	41.0156	75.1535	41.0156	75.036	41.0156	75.3306	41.0156	75.2502	41.0156	75.5156	41.0156	75.4711	41.0156	75.7027	41.0156	75.6891	41.0156	75.8843	41.0156	75.8929	41.0156	76.0504	41.0156	76.0713	41.0156	76.1903	41.0156	76.2135	41.0156	76.2934	41.0156	76.3109	41.0156	76.3509	41.0156	76.3574
43.9453	74.1793	43.9453	74.1529	43.9453	74.2215	43.9453	74.1434	43.9453	74.2782	43.9453	74.1519	43.9453	74.3482	43.9453	74.1795	43.9453	74.4302	43.9453	74.2271	43.9453	74.5231	43.9453	74.2951	43.9453	74.6255	43.9453	74.3837	43.9453	74.7363	43.9453	74.4926	43.9453	74.8543	43.9453	74.6203	43.9453	74.9781	43.9453	74.7643	43.9453	75.1062	43.9453	74.9206	43.9453	75.2361	43.9453	75.0839	43.9453	75.3646	43.9453	75.2471	43.9453	75.4869	43.9453	75.4021	43.9453	75.5969	43.9453	75.5401	43.9453	75.6876	43.9453	75.653	43.9453	75.7518	43.9453	75.7338	43.9453	75.7833	43.9453	75.7777
46.875	75.0108	46.875	74.9827	46.875	75.0522	46.875	74.9686	46.875	75.1056	46.875	74.9692	46.875	75.1701	46.875	74.9853	46.875	75.2442	46.875	75.0172	46.875	75.3264	46.875	75.0655	46.875	75.4151	46.875	75.1304	46.875	75.5087	46.875	75.2117	46.875	75.6055	46.875	75.3087	46.875	75.704	46.875	75.4199	46.875	75.8029	46.875	75.5428	46.875	75.9007	46.875	75.6732	46.875	75.9951	46.875	75.806	46.875	76.0834	46.875	75.9344	46.875	76.1613	46.875	76.0514	46.875	76.2238	46.875	76.1496	46.875	76.2654	46.875	76.2229	46.875	76.2811	46.875	76.2673
49.8047	75.7738	49.8047	75.7424	49.8047	75.8199	49.8047	75.7264	49.8047	75.8798	49.8047	75.7262	49.8047	75.9523	49.8047	75.742	49.8047	76.0356	49.8047	75.7741	49.8047	76.128	49.8047	75.8223	49.8047	76.2271	49.8047	75.8867	49.8047	76.3307	49.8047	75.9668	49.8047	76.4366	49.8047	76.0621	49.8047	76.5425	49.8047	76.1711	49.8047	76.6463	49.8047	76.2917	49.8047	76.7459	49.8047	76.4207	49.8047	76.8388	49.8047	76.5531	49.8047	76.922	49.8047	76.6833	49.8047	76.9916	49.8047	76.8043	49.8047	77.0432	49.8047	76.9093	49.8047	77.0722	49.8047	76.992	49.8047	77.0745	49.8047	77.0478
52.7344	75.6068	52.7344	75.5725	52.7344	75.6572	52.7344	75.5549	52.7344	75.7229	52.7344	75.554	52.7344	75.8025	52.7344	75.5698	52.7344	75.8942	52.7344	75.602	52.7344	75.9958	52.7344	75.6502	52.7344	76.1046	52.7344	75.7139	52.7344	76.2178	52.7344	75.7925	52.7344	76.3324	52.7344	75.8851	52.7344	76.4453	52.7344	75.9905	52.7344	76.5535	52.7344	76.1068	52.7344	76.654	52.7344	76.2312	52.7344	76.7437	52.7344	76.3598	52.7344	76.8193	52.7344	76.4876	52.7344	76.8774	52.7344	76.6088	52.7344	76.9145	52.7344	76.7172	52.7344	76.9275	52.7344	76.807	52.7344	76.9142	52.7344	76.8737
55.6641	75.391	55.6641	75.3549	55.6641	75.4361	55.6641	75.3283	55.6641	75.4895	55.6641	75.3113	55.6641	75.5501	55.6641	75.3038	55.6641	75.6163	55.6641	75.3056	55.6641	75.6863	55.6641	75.3165	55.6641	75.7578	55.6641	75.3363	55.6641	75.8284	55.6641	75.3649	55.6641	75.8956	55.6641	75.4021	55.6641	75.957	55.6641	75.448	55.6641	76.01	55.6641	75.5022	55.6641	76.0529	55.6641	75.5641	55.6641	76.0838	55.6641	75.6325	55.6641	76.1016	55.6641	75.7053	55.6641	76.1056	55.6641	75.7799	55.6641	76.0954	55.6641	75.8532	55.6641	76.071	55.6641	75.9218	55.6641	76.033	55.6641	75.9826
58.5938	76.3298	58.5938	76.2897	58.5938	76.3718	58.5938	76.2516	58.5938	76.4149	58.5938	76.2158	58.5938	76.4579	58.5938	76.1819	58.5938	76.4991	58.5938	76.1497	58.5938	76.5366	58.5938	76.1189	58.5938	76.5679	58.5938	76.0894	58.5938	76.5904	58.5938	76.0615	58.5938	76.6017	58.5938	76.0357	58.5938	76.5995	58.5938	76.0129	58.5938	76.5826	58.5938	75.9947	58.5938	76.5506	58.5938	75.9827	58.5938	76.5045	58.5938	75.9785	58.5938	76.4466	58.5938	75.9838	58.5938	76.3806	58.5938	75.9999	58.5938	76.3105	58.5938	76.0273	58.5938	76.2405	58.5938	76.0661	58.5938	76.1746	58.5938	76.1157
61.5234	77.7785	61.5234	77.7428	61.5234	77.8196	61.5234	77.7123	61.5234	77.8654	61.5234	77.6865	61.5234	77.9148	61.5234	77.6647	61.5234	77.9662	61.5234	77.6461	61.5234	78.017	61.5234	77.6299	61.5234	78.0643	61.5234	77.6154	61.5234	78.1046	61.5234	77.6025	61.5234	78.1345	61.5234	77.5913	61.5234	78.151	61.5234	77.5829	61.5234	78.1519	61.5234	77.5784	61.5234	78.1365	61.5234	77.5794	61.5234	78.1055	61.5234	77.5877	61.5234	78.061	61.5234	77.6045	61.5234	78.0065	61.5234	77.6308	61.5234	77.9459	61.5234	77.6665	61.5234	77.883	61.5234	77.711	61.5234	77.8212	61.5234	77.7631
64.4531	78.5249	64.4531	78.4938	64.4531	78.5697	64.4531	78.4759	64.4531	78.6277	64.4531	78.4701	64.4531	78.6979	64.4531	78.4751	64.4531	78.7784	64.4531	78.4894	64.4531	78.8663	64.4531	78.5115	64.4531	78.9579	64.4531	78.54	64.4531	79.0488	64.4531	78.574	64.4531	79.1345	64.4531	78.613	64.4531	79.2105	64.4531	78.6569	64.4531	79.273	64.4531	78.7062	64.4531	79.3192	64.4531	78.7613	64.4531	79.3475	64.4531	78.8225	64.4531	79.3575	64.4531	78.8894	64.4531	79.35	64.4531	78.9608	64.4531	79.3262	64.4531	79.0344	64.4531	79.2878	64.4531	79.1071	64.4531	79.2368	64.4531	79.1757
67.3828	78.3258	67.3828	78.3002	67.3828	78.3732	67.3828	78.2954	67.3828	78.4424	67.3828	78.3101	67.3828	78.5323	67.3828	78.3424	67.3828	78.6413	67.3828	78.3901	67.3828	78.7661	67.3828	78.4511	67.3828	78.9027	67.3828	78.5233	67.3828	79.046	67.3828	78.605	67.3828	79.1903	67.3828	78.6948	67.3828	79.3292	67.3828	78.7917	67.3828	79.4568	67.3828	78.895	67.3828	79.5677	67.3828	79.004	67.3828	79.6573	67.3828	79.1175	67.3828	79.7223	67.3828	79.2334	67.3828	79.7605	67.3828	79.3487	67.3828	79.7712	67.3828	79.4591	67.3828	79.7544	67.3828	79.5597	67.3828	79.7116	67.3828	79.6454
70.3125	77.5338	70.3125	77.5085	70.3125	77.5842	70.3125	77.5079	70.3125	77.6595	70.3125	77.5309	70.3125	77.7585	70.3125	77.5758	70.3125	77.8793	70.3125	77.6407	70.3125	78.0192	70.3125	77.7232	70.3125	78.1743	70.3125	77.821	70.3125	78.3399	70.3125	77.9319	70.3125	78.5102	70.3125	78.0536	70.3125	78.679	70.3125	78.1842	70.3125	78.8394	70.3125	78.3218	70.3125	78.9849	70.3125	78.4643	70.3125	79.1094	70.3125	78.609	70.3125	79.2076	70.3125	78.7527	70.3125	79.2757	70.3125	78.8909	70.3125	79.311	70.3125	79.0184	70.3125	79.3126	70.3125	79.1296	70.3125	79.2811	70.3125	79.2188
73.2422	76.92	73.2422	76.8801	73.2422	76.9737	73.2422	76.855	73.2422	77.0402	73.2422	76.8453	73.2422	77.1187	73.2422	76.8516	73.2422	77.2084	73.2422	76.8741	73.2422	77.3085	73.2422	76.9127	73.2422	77.4179	73.2422	76.9669	73.2422	77.5349	73.2422	77.036	73.2422	77.6571	73.2422	77.119	73.2422	77.7809	73.2422	77.2148	73.2422	77.9015	73.2422	77.3219	73.2422	78.0131	73.2422	77.4386	73.2422	78.1097	73.2422	77.5622	73.2422	78.1854	73.2422	77.6895	73.2422	78.2353	73.2422	77.8161	73.2422	78.2558	73.2422	77.9368	73.2422	78.2455	73.2422	78.0458	73.2422	78.205	73.2422	78.137
76.1719	77.4272	76.1719	77.369	76.1719	77.4822	76.1719	77.309	76.1719	77.5328	76.1719	77.2483	76.1719	77.5778	76.1719	77.1882	76.1719	77.6163	76.1719	77.1298	76.1719	77.6476	76.1719	77.0743	76.1719	77.6709	76.1719	77.0229	76.1719	77.686	76.1719	76.977	76.1719	77.6925	76.1719	76.9385	76.1719	77.6898	76.1719	76.9092	76.1719	77.6771	76.1719	76.8914	76.1719	77.6537	76.1719	76.8871	76.1719	77.6185	76.1719	76.8984	76.1719	77.5709	76.1719	76.9263	76.1719	77.5108	76.1719	76.9711	76.1719	77.4394	76.1719	77.0314	76.1719	77.3591	76.1719	77.1047	76.1719	77.2734	76.1719	77.1869
79.1016	78.369	79.1016	78.3078	79.1016	78.4246	79.1016	78.2416	79.1016	78.4734	79.1016	78.1708	79.1016	78.5137	79.1016	78.0957	79.1016	78.5437	79.1016	78.0159	79.1016	78.5612	79.1016	77.9316	79.1016	78.5639	79.1016	77.8428	79.1016	78.5497	79.1016	77.7504	79.1016	78.5165	79.1016	77.6557	79.1016	78.4626	79.1016	77.5614	79.1016	78.3871	79.1016	77.4711	79.1016	78.2903	79.1016	77.3897	79.1016	78.174	79.1016	77.3227	79.1016	78.0418	79.1016	77.2761	79.1016	77.8993	79.1016	77.2558	79.1016	77.7536	79.1016	77.2659	79.1016	77.6134	79.1016	77.3088	79.1016	77.4874	79.1016	77.3838
82.0313	79.2761	82.0313	79.226	82.0313	79.3227	82.0313	79.1722	82.0313	79.3651	82.0313	79.1144	82.0313	79.4023	82.0313	79.0519	82.0313	79.4327	82.0313	78.9837	82.0313	79.454	82.0313	78.9087	82.0313	79.4636	82.0313	78.8263	82.0313	79.4581	82.0313	78.7366	82.0313	79.4342	82.0313	78.6402	82.0313	79.3887	82.0313	78.5395	82.0313	79.319	82.0313	78.4382	82.0313	79.224	82.0313	78.3416	82.0313	79.1046	82.0313	78.2565	82.0313	78.9645	82.0313	78.1909	82.0313	78.8103	82.0313	78.1525	82.0313	78.6511	82.0313	78.1482	82.0313	78.498	82.0313	78.182	82.0313	78.3624	82.0313	78.2546
84.9609	79.6226	84.9609	79.5861	84.9609	79.6595	84.9609	79.5492	84.9609	79.6968	84.9609	79.5107	84.9609	79.7338	84.9609	79.469	84.9609	79.769	84.9609	79.422	84.9609	79.8001	84.9609	79.3679	84.9609	79.8238	84.9609	79.3052	84.9609	79.8362	84.9609	79.2331	84.9609	79.833	84.9609	79.152	84.9609	79.8096	84.9609	79.0637	84.9609	79.7625	84.9609	78.9719	84.9609	79.6891	84.9609	78.8822	84.9609	79.5895	84.9609	78.8017	84.9609	79.4667	84.9609	78.7387	84.9609	79.3267	84.9609	78.7015	84.9609	79.1787	84.9609	78.6972	84.9609	79.0339	84.9609	78.7299	84.9609	78.9042	84.9609	78.8003
87.8906	79.6221	87.8906	79.5904	87.8906	79.6578	87.8906	79.5618	87.8906	79.6978	87.8906	79.5347	87.8906	79.7417	87.8906	79.5071	87.8906	79.7879	87.8906	79.4768	87.8906	79.8343	87.8906	79.4418	87.8906	79.8775	87.8906	79.4003	87.8906	79.9132	87.8906	79.3514	87.8906	79.9364	87.8906	79.2952	87.8906	79.9422	87.8906	79.2334	87.8906	79.9257	87.8906	79.1692	87.8906	79.8838	87.8906	79.1075	87.8906	79.8153	87.8906	79.0546	87.8906	79.722	87.8906	79.0176	87.8906	79.6089	87.8906	79.0033	87.8906	79.4838	87.8906	79.017	87.8906	79.3564	87.8906	79.0617	87.8906	79.2374	87.8906	79.1366
90.8203	78.6618	90.8203	78.6324	90.8203	78.7111	90.8203	78.6225	90.8203	78.78	90.8203	78.6308	90.8203	78.8674	90.8203	78.6555	90.8203	78.9715	90.8203	78.694	90.8203	79.0897	90.8203	78.7434	90.8203	79.218	90.8203	78.8009	90.8203	79.3517	90.8203	78.8636	90.8203	79.4846	90.8203	78.9293	90.8203	79.6096	90.8203	78.9968	90.8203	79.7197	90.8203	79.0656	90.8203	79.8078	90.8203	79.1364	90.8203	79.8687	90.8203	79.2104	90.8203	79.8989	90.8203	79.289	90.8203	79.8978	90.8203	79.3733	90.8203	79.8672	90.8203	79.463	90.8203	79.8114	90.8203	79.5562	90.8203	79.7365	90.8203	79.6492
93.75	79.3978	93.75	79.3505	93.75	79.4417	93.75	79.3007	93.75	79.4816	93.75	79.2494	93.75	79.5174	93.75	79.1976	93.75	79.5494	93.75	79.1465	93.75	79.5782	93.75	79.0967	93.75	79.604	93.75	79.0493	93.75	79.6267	93.75	79.0049	93.75	79.645	93.75	78.9647	93.75	79.6567	93.75	78.9305	93.75	79.6586	93.75	78.9042	93.75	79.6471	93.75	78.8887	93.75	79.6189	93.75	78.8869	93.75	79.5723	93.75	78.9016	93.75	79.5073	93.75	78.9349	93.75	79.4264	93.75	78.9875	93.75	79.3344	93.75	79.0581	93.75	79.2376	93.75	79.1433
96.6797	79.8594	96.6797	79.8098	96.6797	79.8977	96.6797	79.7491	96.6797	79.9244	96.6797	79.6771	96.6797	79.9393	96.6797	79.5935	96.6797	79.9417	96.6797	79.498	96.6797	79.9312	96.6797	79.3906	96.6797	79.907	96.6797	79.2717	96.6797	79.8679	96.6797	79.1426	96.6797	79.8128	96.6797	79.0058	96.6797	79.74	96.6797	78.8656	96.6797	79.6481	96.6797	78.7278	96.6797	79.536	96.6797	78.6	96.6797	79.404	96.6797	78.491	96.6797	79.2542	96.6797	78.4099	96.6797	79.0914	96.6797	78.3651	96.6797	78.923	96.6797	78.3625	96.6797	78.759	96.6797	78.4045	96.6797	78.6106	96.6797	78.4893
102.539	80.4581	102.539	80.4162	102.539	80.5008	102.539	80.3743	102.539	80.5441	102.539	80.3311	102.539	80.587	102.539	80.2844	102.539	80.6278	102.539	80.2317	102.539	80.6637	102.539	80.1704	102.539	80.691	102.539	80.0982	102.539	80.7051	102.539	80.0135	102.539	80.7005	102.539	79.9163	102.539	80.6718	102.539	79.8082	102.539	80.6139	102.539	79.6932	102.539	80.5237	102.539	79.578	102.539	80.4007	102.539	79.4715	102.539	80.2483	102.539	79.3844	102.539	80.0742	102.539	79.3282	102.539	79.8901	102.539	79.3127	102.539	79.7104	102.539	79.3447	102.539	79.5509	102.539	79.4256
105.469	80.5451	105.469	80.5168	105.469	80.5822	105.469	80.496	105.469	80.6284	105.469	80.4808	105.469	80.6829	105.469	80.468	105.469	80.744	105.469	80.4541	105.469	80.8088	105.469	80.4355	105.469	80.8727	105.469	80.4086	105.469	80.9303	105.469	80.3706	105.469	80.9747	105.469	80.3202	105.469	80.9985	105.469	80.258	105.469	80.9949	105.469	80.1871	105.469	80.9584	105.469	80.1129	105.469	80.8869	105.469	80.0434	105.469	80.7818	105.469	79.9884	105.469	80.6493	105.469	79.9582	105.469	80.4996	105.469	79.9615	105.469	80.3463	105.469	80.0041	105.469	80.2041	105.469	80.0866
108.398	80.3437	108.398	80.3259	108.398	80.3784	108.398	80.3238	108.398	80.4303	108.398	80.3352	108.398	80.499	108.398	80.3569	108.398	80.5829	108.398	80.385	108.398	80.6794	108.398	80.415	108.398	80.7843	108.398	80.4423	108.398	80.8916	108.398	80.4632	108.398	80.9936	108.398	80.4749	108.398	81.0814	108.398	80.4766	108.398	81.1463	108.398	80.4697	108.398	81.1806	108.398	80.4579	108.398	81.1794	108.398	80.4471	108.398	81.1415	108.398	80.4447	108.398	81.0703	108.398	80.4582	108.398	80.9732	108.398	80.4939	108.398	80.8611	108.398	80.5553	108.398	80.7464	108.398	80.6413
