"SPL Horizontal"																																																																							
"On-Axis"		"10°"		"-10°"		"20°"		"-20°"		"30°"		"-30°"		"40°"		"-40°"		"50°"		"-50°"		"60°"		"-60°"		"70°"		"-70°"		"80°"		"-80°"		"90°"		"-90°"		"100°"		"-100°"		"110°"		"-110°"		"120°"		"-120°"		"130°"		"-130°"		"140°"		"-140°"		"150°"		"-150°"		"160°"		"-160°"		"170°"		"-170°"		"180°"	
"Frequency [Hz]"	"Sound Pessure Level [dB]  / [2.83V 1m] "	"Frequency [Hz]"	"Sound Pessure Level [dB]  / [2.83V 1m] "	"Frequency [Hz]"	"Sound Pessure Level [dB]  / [2.83V 1m] "	"Frequency [Hz]"	"Sound Pessure Level [dB]  / [2.83V 1m] "	"Frequency [Hz]"	"Sound Pessure Level [dB]  / [2.83V 1m] "	"Frequency [Hz]"	"Sound Pessure Level [dB]  / [2.83V 1m] "	"Frequency [Hz]"	"Sound Pessure Level [dB]  / [2.83V 1m] "	"Frequency [Hz]"	"Sound Pessure Level [dB]  / [2.83V 1m] "	"Frequency [Hz]"	"Sound Pessure Level [dB]  / [2.83V 1m] "	"Frequency [Hz]"	"Sound Pessure Level [dB]  / [2.83V 1m] "	"Frequency [Hz]"	"Sound Pessure Level [dB]  / [2.83V 1m] "	"Frequency [Hz]"	"Sound Pessure Level [dB]  / [2.83V 1m] "	"Frequency [Hz]"	"Sound Pessure Level [dB]  / [2.83V 1m] "	"Frequency [Hz]"	"Sound Pessure Level [dB]  / [2.83V 1m] "	"Frequency [Hz]"	"Sound Pessure Level [dB]  / [2.83V 1m] "	"Frequency [Hz]"	"Sound Pessure Level [dB]  / [2.83V 1m] "	"Frequency [Hz]"	"Sound Pessure Level [dB]  / [2.83V 1m] "	"Frequency [Hz]"	"Sound Pessure Level [dB]  / [2.83V 1m] "	"Frequency [Hz]"	"Sound Pessure Level [dB]  / [2.83V 1m] "	"Frequency [Hz]"	"Sound Pessure Level [dB]  / [2.83V 1m] "	"Frequency [Hz]"	"Sound Pessure Level [dB]  / [2.83V 1m] "	"Frequency [Hz]"	"Sound Pessure Level [dB]  / [2.83V 1m] "	"Frequency [Hz]"	"Sound Pessure Level [dB]  / [2.83V 1m] "	"Frequency [Hz]"	"Sound Pessure Level [dB]  / [2.83V 1m] "	"Frequency [Hz]"	"Sound Pessure Level [dB]  / [2.83V 1m] "	"Frequency [Hz]"	"Sound Pessure Level [dB]  / [2.83V 1m] "	"Frequency [Hz]"	"Sound Pessure Level [dB]  / [2.83V 1m] "	"Frequency [Hz]"	"Sound Pessure Level [dB]  / [2.83V 1m] "	"Frequency [Hz]"	"Sound Pessure Level [dB]  / [2.83V 1m] "	"Frequency [Hz]"	"Sound Pessure Level [dB]  / [2.83V 1m] "	"Frequency [Hz]"	"Sound Pessure Level [dB]  / [2.83V 1m] "	"Frequency [Hz]"	"Sound Pessure Level [dB]  / [2.83V 1m] "	"Frequency [Hz]"	"Sound Pessure Level [dB]  / [2.83V 1m] "	"Frequency [Hz]"	"Sound Pessure Level [dB]  / [2.83V 1m] "	"Frequency [Hz]"	"Sound Pessure Level [dB]  / [2.83V 1m] "	"Frequency [Hz]"	"Sound Pessure Level [dB]  / [2.83V 1m] "
20.5078	63.8449	20.5078	63.8273	20.5078	63.8524	20.5078	63.8002	20.5078	63.8496	20.5078	63.764	20.5078	63.8363	20.5078	63.7194	20.5078	63.8127	20.5078	63.6674	20.5078	63.7789	20.5078	63.6088	20.5078	63.7357	20.5078	63.5449	20.5078	63.6836	20.5078	63.4771	20.5078	63.6239	20.5078	63.4069	20.5078	63.5577	20.5078	63.3364	20.5078	63.4869	20.5078	63.2678	20.5078	63.4134	20.5078	63.2034	20.5078	63.3396	20.5078	63.1459	20.5078	63.268	20.5078	63.0977	20.5078	63.2015	20.5078	63.0611	20.5078	63.1427	20.5078	63.0379	20.5078	63.0942	20.5078	63.0295	20.5078	63.0582	20.5078	63.0363
21.9727	65.0155	21.9727	65.0042	21.9727	65.0163	21.9727	64.9827	21.9727	65.0065	21.9727	64.9512	21.9727	64.9864	21.9727	64.9101	21.9727	64.9559	21.9727	64.8601	21.9727	64.9155	21.9727	64.8019	21.9727	64.8658	21.9727	64.7367	21.9727	64.8074	21.9727	64.6658	21.9727	64.7416	21.9727	64.5908	21.9727	64.6698	21.9727	64.5138	21.9727	64.5937	21.9727	64.4372	21.9727	64.5155	21.9727	64.3637	21.9727	64.4379	21.9727	64.2962	21.9727	64.3636	21.9727	64.2377	21.9727	64.2957	21.9727	64.1909	21.9727	64.237	21.9727	64.1582	21.9727	64.1902	21.9727	64.1413	21.9727	64.1578	21.9727	64.1412
23.4375	66.3425	23.4375	66.3259	23.4375	66.3501	23.4375	66.3007	23.4375	66.3488	23.4375	66.2671	23.4375	66.3385	23.4375	66.2255	23.4375	66.3193	23.4375	66.1764	23.4375	66.2914	23.4375	66.1204	23.4375	66.2551	23.4375	66.0586	23.4375	66.2108	23.4375	65.9922	23.4375	66.1592	23.4375	65.9229	23.4375	66.101	23.4375	65.8527	23.4375	66.0375	23.4375	65.7842	23.4375	65.97	23.4375	65.72	23.4375	65.9002	23.4375	65.6633	23.4375	65.8304	23.4375	65.617	23.4375	65.7632	23.4375	65.5835	23.4375	65.7013	23.4375	65.565	23.4375	65.6476	23.4375	65.5625	23.4375	65.6051	23.4375	65.5762
24.9023	67.166	24.9023	67.1561	24.9023	67.1668	24.9023	67.1372	24.9023	67.1583	24.9023	67.1096	24.9023	67.1408	24.9023	67.0737	24.9023	67.1143	24.9023	67.0301	24.9023	67.0794	24.9023	66.9795	24.9023	67.0367	24.9023	66.923	24.9023	66.9868	24.9023	66.8618	24.9023	66.9309	24.9023	66.7975	24.9023	66.8702	24.9023	66.7319	24.9023	66.8063	24.9023	66.6671	24.9023	66.7411	24.9023	66.6054	24.9023	66.6766	24.9023	66.5494	24.9023	66.6149	24.9023	66.5015	24.9023	66.5585	24.9023	66.4638	24.9023	66.5095	24.9023	66.4382	24.9023	66.4702	24.9023	66.4258	24.9023	66.4423	24.9023	66.4273
26.3672	67.9822	26.3672	67.9727	26.3672	67.9819	26.3672	67.9537	26.3672	67.9718	26.3672	67.9253	26.3672	67.9521	26.3672	67.888	26.3672	67.9231	26.3672	67.8423	26.3672	67.8852	26.3672	67.7891	26.3672	67.839	26.3672	67.7293	26.3672	67.7853	26.3672	67.6644	26.3672	67.7253	26.3672	67.5959	26.3672	67.6603	26.3672	67.5257	26.3672	67.5919	26.3672	67.4561	26.3672	67.5221	26.3672	67.3896	26.3672	67.4531	26.3672	67.3287	26.3672	67.3871	26.3672	67.2761	26.3672	67.3269	26.3672	67.2341	26.3672	67.2748	26.3672	67.2049	26.3672	67.2333	26.3672	67.1899	26.3672	67.2045	26.3672	67.1897
27.832	68.9072	27.832	68.8986	27.832	68.906	27.832	68.8803	27.832	68.8949	27.832	68.8527	27.832	68.8742	27.832	68.8161	27.832	68.844	27.832	68.7711	27.832	68.8049	27.832	68.7187	27.832	68.7575	27.832	68.6597	27.832	68.7027	27.832	68.5957	27.832	68.6416	27.832	68.5281	27.832	68.5757	27.832	68.4589	27.832	68.5069	27.832	68.3902	27.832	68.4371	27.832	68.3244	27.832	68.3686	27.832	68.2639	27.832	68.304	27.832	68.2114	27.832	68.2458	27.832	68.169	27.832	68.1963	27.832	68.1387	27.832	68.1577	27.832	68.122	27.832	68.1317	27.832	68.1197
29.2969	69.747	29.2969	69.7372	29.2969	69.7461	29.2969	69.7168	29.2969	69.7344	29.2969	69.6861	29.2969	69.7121	29.2969	69.6454	29.2969	69.6794	29.2969	69.5955	29.2969	69.6367	29.2969	69.5373	29.2969	69.5847	29.2969	69.4717	29.2969	69.5242	29.2969	69.4002	29.2969	69.4563	29.2969	69.3245	29.2969	69.3825	29.2969	69.2465	29.2969	69.3046	29.2969	69.1687	29.2969	69.2249	29.2969	69.0937	29.2969	69.146	29.2969	69.0241	29.2969	69.0708	29.2969	68.9631	29.2969	69.0025	29.2969	68.9133	29.2969	68.9441	29.2969	68.8773	29.2969	68.8984	29.2969	68.8571	29.2969	68.8678	29.2969	68.8538
30.7617	70.481	30.7617	70.4705	30.7617	70.4814	30.7617	70.4501	30.7617	70.4717	30.7617	70.4202	30.7617	70.4521	30.7617	70.381	30.7617	70.4228	30.7617	70.3333	30.7617	70.3842	30.7617	70.278	30.7617	70.3369	30.7617	70.2161	30.7617	70.2817	30.7617	70.149	30.7617	70.2197	30.7617	70.0785	30.7617	70.1522	30.7617	70.0064	30.7617	70.081	30.7617	69.9352	30.7617	70.0082	30.7617	69.8672	30.7617	69.9363	30.7617	69.8052	30.7617	69.8679	30.7617	69.7518	30.7617	69.8055	30.7617	69.7093	30.7617	69.7519	30.7617	69.6798	30.7617	69.7094	30.7617	69.6647	30.7617	69.6799	30.7617	69.6647
32.2266	71.2053	32.2266	71.1965	32.2266	71.2046	32.2266	71.1784	32.2266	71.1943	32.2266	71.1512	32.2266	71.1746	32.2266	71.1153	32.2266	71.1459	32.2266	71.0716	32.2266	71.1085	32.2266	71.0207	32.2266	71.0631	32.2266	70.9639	32.2266	71.0105	32.2266	70.9024	32.2266	70.9519	32.2266	70.8377	32.2266	70.8885	32.2266	70.7717	32.2266	70.8221	32.2266	70.7063	32.2266	70.7546	32.2266	70.6437	32.2266	70.6882	32.2266	70.5862	32.2266	70.6254	32.2266	70.5359	32.2266	70.5686	32.2266	70.4951	32.2266	70.5203	32.2266	70.4657	32.2266	70.4828	32.2266	70.4492	32.2266	70.4578	32.2266	70.4464
33.6914	71.9056	33.6914	71.8987	33.6914	71.9023	33.6914	71.8816	33.6914	71.8888	33.6914	71.8547	33.6914	71.8655	33.6914	71.8184	33.6914	71.8327	33.6914	71.7734	33.6914	71.7911	33.6914	71.7208	33.6914	71.7417	33.6914	71.6618	33.6914	71.6856	33.6914	71.5978	33.6914	71.6242	33.6914	71.5307	33.6914	71.559	33.6914	71.4624	33.6914	71.492	33.6914	71.3952	33.6914	71.4251	33.6914	71.3315	33.6914	71.3605	33.6914	71.2734	33.6914	71.3004	33.6914	71.2234	33.6914	71.247	33.6914	71.1832	33.6914	71.2022	33.6914	71.1544	33.6914	71.1678	33.6914	71.1382	33.6914	71.1451	33.6914	71.1351
35.1563	72.6295	35.1563	72.6216	35.1563	72.6269	35.1563	72.6032	35.1563	72.6137	35.1563	72.5747	35.1563	72.5901	35.1563	72.5368	35.1563	72.5565	35.1563	72.4902	35.1563	72.5136	35.1563	72.436	35.1563	72.4623	35.1563	72.3755	35.1563	72.4039	35.1563	72.3102	35.1563	72.3399	35.1563	72.242	35.1563	72.272	35.1563	72.1729	35.1563	72.2024	35.1563	72.1052	35.1563	72.1332	35.1563	72.0412	35.1563	72.0669	35.1563	71.9832	35.1563	72.0058	35.1563	71.9332	35.1563	71.9521	35.1563	71.893	35.1563	71.9076	35.1563	71.864	35.1563	71.874	35.1563	71.8473	35.1563	71.8523	35.1563	71.8433
36.6211	73.2104	36.6211	73.2007	36.6211	73.2096	36.6211	73.1805	36.6211	73.1982	36.6211	73.1505	36.6211	73.1765	36.6211	73.111	36.6211	73.1447	36.6211	73.0629	36.6211	73.1034	36.6211	73.0073	36.6211	73.0536	36.6211	72.9456	36.6211	72.9964	36.6211	72.8793	36.6211	72.9332	36.6211	72.8102	36.6211	72.8656	36.6211	72.7406	36.6211	72.7958	36.6211	72.6727	36.6211	72.7258	36.6211	72.6088	36.6211	72.6582	36.6211	72.5513	36.6211	72.5952	36.6211	72.5022	36.6211	72.5392	36.6211	72.4634	36.6211	72.4923	36.6211	72.4362	36.6211	72.456	36.6211	72.4216	36.6211	72.4316	36.6211	72.42
38.0859	73.8256	38.0859	73.8149	38.0859	73.8266	38.0859	73.7947	38.0859	73.8181	38.0859	73.7656	38.0859	73.8001	38.0859	73.728	38.0859	73.7731	38.0859	73.6829	38.0859	73.7376	38.0859	73.6313	38.0859	73.6944	38.0859	73.5745	38.0859	73.6445	38.0859	73.5141	38.0859	73.5893	38.0859	73.452	38.0859	73.53	38.0859	73.3901	38.0859	73.4683	38.0859	73.3304	38.0859	73.4062	38.0859	73.275	38.0859	73.3456	38.0859	73.2257	38.0859	73.2887	38.0859	73.1844	38.0859	73.2373	38.0859	73.1524	38.0859	73.1936	38.0859	73.1308	38.0859	73.1589	38.0859	73.1205	38.0859	73.1347	38.0859	73.1218
39.5508	74.3925	39.5508	74.3833	39.5508	74.3915	39.5508	74.364	39.5508	74.3804	39.5508	74.335	39.5508	74.3595	39.5508	74.2969	39.5508	74.3292	39.5508	74.2506	39.5508	74.2902	39.5508	74.1971	39.5508	74.2434	39.5508	74.1379	39.5508	74.1901	39.5508	74.0746	39.5508	74.1314	39.5508	74.009	39.5508	74.069	39.5508	73.9433	39.5508	74.0045	39.5508	73.8795	39.5508	73.9399	39.5508	73.82	39.5508	73.8772	39.5508	73.7667	39.5508	73.8185	39.5508	73.7216	39.5508	73.7657	39.5508	73.6863	39.5508	73.7209	39.5508	73.6619	39.5508	73.6858	39.5508	73.6495	39.5508	73.6616	39.5508	73.6494
41.0156	74.9663	41.0156	74.9801	41.0156	74.9437	41.0156	74.9849	41.0156	74.9127	41.0156	74.9807	41.0156	74.8739	41.0156	74.968	41.0156	74.8284	41.0156	74.9474	41.0156	74.7774	41.0156	74.9195	41.0156	74.7223	41.0156	74.8854	41.0156	74.6648	41.0156	74.846	41.0156	74.6068	41.0156	74.8022	41.0156	74.5505	41.0156	74.7549	41.0156	74.4978	41.0156	74.7052	41.0156	74.451	41.0156	74.654	41.0156	74.4119	41.0156	74.6025	41.0156	74.3819	41.0156	74.552	41.0156	74.3621	41.0156	74.5039	41.0156	74.3532	41.0156	74.4599	41.0156	74.3553	41.0156	74.4215	41.0156	74.3679	41.0156	74.3904
42.4805	75.4419	42.4805	75.4284	42.4805	75.4427	42.4805	75.4026	42.4805	75.431	42.4805	75.3651	42.4805	75.4069	42.4805	75.3166	42.4805	75.371	42.4805	75.2585	42.4805	75.3242	42.4805	75.1922	42.4805	75.2675	42.4805	75.1195	42.4805	75.2025	42.4805	75.0426	42.4805	75.131	42.4805	74.9638	42.4805	75.0552	42.4805	74.8858	42.4805	74.9774	42.4805	74.811	42.4805	74.9001	42.4805	74.7422	42.4805	74.826	42.4805	74.6817	42.4805	74.7573	42.4805	74.6315	42.4805	74.6963	42.4805	74.5934	42.4805	74.6448	42.4805	74.5683	42.4805	74.604	42.4805	74.557	42.4805	74.5753	42.4805	74.5594
43.9453	75.9486	43.9453	75.9393	43.9453	75.9461	43.9453	75.9183	43.9453	75.9317	43.9453	75.8861	43.9453	75.9059	43.9453	75.8438	43.9453	75.8693	43.9453	75.7923	43.9453	75.8229	43.9453	75.7331	43.9453	75.7679	43.9453	75.6682	43.9453	75.7061	43.9453	75.5994	43.9453	75.6392	43.9453	75.5291	43.9453	75.5695	43.9453	75.4594	43.9453	75.4993	43.9453	75.3928	43.9453	75.4308	43.9453	75.3313	43.9453	75.3664	43.9453	75.2768	43.9453	75.3081	43.9453	75.2311	43.9453	75.2574	43.9453	75.1953	43.9453	75.2159	43.9453	75.1703	43.9453	75.1845	43.9453	75.1566	43.9453	75.1638	43.9453	75.1544
45.4102	76.4654	45.4102	76.4641	45.4102	76.4534	45.4102	76.4496	45.4102	76.4284	45.4102	76.4221	45.4102	76.3909	45.4102	76.3826	45.4102	76.342	45.4102	76.3321	45.4102	76.283	45.4102	76.2722	45.4102	76.2155	45.4102	76.2048	45.4102	76.1416	45.4102	76.1319	45.4102	76.0637	45.4102	76.056	45.4102	75.9843	45.4102	75.9796	45.4102	75.9062	45.4102	75.905	45.4102	75.8321	45.4102	75.8346	45.4102	75.7645	45.4102	75.7703	45.4102	75.7057	45.4102	75.7137	45.4102	75.6575	45.4102	75.6662	45.4102	75.6211	45.4102	75.6289	45.4102	75.5973	45.4102	75.6027	45.4102	75.5864	45.4102	75.5884
46.875	77.0035	46.875	77.0013	46.875	76.9911	46.875	76.9848	46.875	76.9642	46.875	76.9543	46.875	76.9233	46.875	76.9104	46.875	76.8691	46.875	76.8543	46.875	76.8026	46.875	76.7871	46.875	76.7254	46.875	76.7104	46.875	76.6394	46.875	76.6262	46.875	76.5468	46.875	76.5367	46.875	76.4504	46.875	76.4442	46.875	76.3534	46.875	76.3517	46.875	76.2591	46.875	76.2617	46.875	76.171	46.875	76.1774	46.875	76.0923	46.875	76.1012	46.875	76.0261	46.875	76.036	46.875	75.975	46.875	75.9839	46.875	75.9408	46.875	75.947	46.875	75.9247	46.875	75.9269
48.3398	77.2975	48.3398	77.2903	48.3398	77.2915	48.3398	77.2701	48.3398	77.2725	48.3398	77.2375	48.3398	77.2408	48.3398	77.1932	48.3398	77.1973	48.3398	77.1384	48.3398	77.143	48.3398	77.0744	48.3398	77.0793	48.3398	77.0032	48.3398	77.008	48.3398	76.9267	48.3398	76.9312	48.3398	76.8473	48.3398	76.8512	48.3398	76.7675	48.3398	76.7706	48.3398	76.6899	48.3398	76.6922	48.3398	76.617	48.3398	76.6185	48.3398	76.5513	48.3398	76.5521	48.3398	76.4947	48.3398	76.495	48.3398	76.449	48.3398	76.4491	48.3398	76.4155	48.3398	76.4154	48.3398	76.395	48.3398	76.395	48.3398	76.3881
51.2695	77.9795	51.2695	77.9706	51.2695	77.9752	51.2695	77.9488	51.2695	77.9578	51.2695	77.915	51.2695	77.9277	51.2695	77.8701	51.2695	77.8857	51.2695	77.8156	51.2695	77.833	51.2695	77.7531	51.2695	77.7711	51.2695	77.6848	51.2695	77.7021	51.2695	77.6129	51.2695	77.6283	51.2695	77.5397	51.2695	77.5524	51.2695	77.4678	51.2695	77.4771	51.2695	77.3994	51.2695	77.4051	51.2695	77.3366	51.2695	77.3389	51.2695	77.2812	51.2695	77.2808	51.2695	77.2344	51.2695	77.2323	51.2695	77.1973	51.2695	77.1944	51.2695	77.1702	51.2695	77.1676	51.2695	77.1535	51.2695	77.152	51.2695	77.1473
52.7344	78.3279	52.7344	78.3186	52.7344	78.3239	52.7344	78.2961	52.7344	78.3064	52.7344	78.2614	52.7344	78.276	52.7344	78.2154	52.7344	78.2334	52.7344	78.1598	52.7344	78.18	52.7344	78.0962	52.7344	78.1173	52.7344	78.0269	52.7344	78.0475	52.7344	77.9542	52.7344	77.973	52.7344	77.8806	52.7344	77.8966	52.7344	77.8086	52.7344	77.821	52.7344	77.7407	52.7344	77.7491	52.7344	77.6788	52.7344	77.6835	52.7344	77.6247	52.7344	77.6262	52.7344	77.5794	52.7344	77.5787	52.7344	77.5438	52.7344	77.5419	52.7344	77.518	52.7344	77.516	52.7344	77.5022	52.7344	77.501	52.7344	77.4965
54.1992	78.6182	54.1992	78.6084	54.1992	78.6145	54.1992	78.5854	54.1992	78.5973	54.1992	78.55	54.1992	78.5668	54.1992	78.5033	54.1992	78.5239	54.1992	78.4469	54.1992	78.4699	54.1992	78.3825	54.1992	78.4063	54.1992	78.3124	54.1992	78.3352	54.1992	78.2388	54.1992	78.2591	54.1992	78.1644	54.1992	78.1807	54.1992	78.0916	54.1992	78.1031	54.1992	78.0228	54.1992	78.029	54.1992	77.9601	54.1992	77.9614	54.1992	77.9051	54.1992	77.9024	54.1992	77.859	54.1992	77.8537	54.1992	77.8224	54.1992	77.8163	54.1992	77.7956	54.1992	77.7904	54.1992	77.7787	54.1992	77.7757	54.1992	77.772
55.6641	78.8814	55.6641	78.8714	55.6641	78.8784	55.6641	78.849	55.6641	78.8627	55.6641	78.815	55.6641	78.8345	55.6641	78.7704	55.6641	78.7947	55.6641	78.717	55.6641	78.7446	55.6641	78.6566	55.6641	78.6859	55.6641	78.5915	55.6641	78.6208	55.6641	78.524	55.6641	78.5515	55.6641	78.4567	55.6641	78.4809	55.6641	78.3919	55.6641	78.4117	55.6641	78.332	55.6641	78.3466	55.6641	78.2786	55.6641	78.2879	55.6641	78.233	55.6641	78.2376	55.6641	78.1958	55.6641	78.1968	55.6641	78.1671	55.6641	78.1659	55.6641	78.1466	55.6641	78.1448	55.6641	78.1342	55.6641	78.1329	55.6641	78.1295
58.5938	79.3905	58.5938	79.3785	58.5938	79.388	58.5938	79.3526	58.5938	79.3711	58.5938	79.3138	58.5938	79.3403	58.5938	79.2634	58.5938	79.2965	58.5938	79.2034	58.5938	79.2413	58.5938	79.136	58.5938	79.1766	58.5938	79.0641	58.5938	79.1048	58.5938	78.9903	58.5938	79.0289	58.5938	78.9176	58.5938	78.9517	58.5938	78.8487	58.5938	78.8766	58.5938	78.7858	58.5938	78.8064	58.5938	78.7308	58.5938	78.7439	58.5938	78.6845	58.5938	78.6909	58.5938	78.6473	58.5938	78.6485	58.5938	78.619	58.5938	78.6171	58.5938	78.5989	58.5938	78.5961	58.5938	78.5865	58.5938	78.5846	58.5938	78.5817
60.0586	79.6005	60.0586	79.5874	60.0586	79.5992	60.0586	79.5602	60.0586	79.5835	60.0586	79.52	60.0586	79.5541	60.0586	79.4682	60.0586	79.512	60.0586	79.4067	60.0586	79.4588	60.0586	79.338	60.0586	79.3967	60.0586	79.2648	60.0586	79.3281	60.0586	79.1902	60.0586	79.2557	60.0586	79.1173	60.0586	79.1827	60.0586	79.049	60.0586	79.1119	60.0586	78.9878	60.0586	79.046	60.0586	78.9356	60.0586	78.9874	60.0586	78.8935	60.0586	78.9374	60.0586	78.8615	60.0586	78.8967	60.0586	78.8391	60.0586	78.8655	60.0586	78.8255	60.0586	78.8429	60.0586	78.8195	60.0586	78.8281	60.0586	78.8205
62.9883	79.9929	62.9883	79.98	62.9883	79.9901	62.9883	79.9519	62.9883	79.9715	62.9883	79.9098	62.9883	79.9378	62.9883	79.8552	62.9883	79.8901	62.9883	79.7904	62.9883	79.8302	62.9883	79.7178	62.9883	79.7602	62.9883	79.6407	62.9883	79.6831	62.9883	79.562	62.9883	79.6022	62.9883	79.4852	62.9883	79.5209	62.9883	79.4132	62.9883	79.4427	62.9883	79.3485	62.9883	79.3709	62.9883	79.293	62.9883	79.3082	62.9883	79.2475	62.9883	79.2561	62.9883	79.2121	62.9883	79.2155	62.9883	79.186	62.9883	79.1861	62.9883	79.1682	62.9883	79.1669	62.9883	79.1576	62.9883	79.1565	62.9883	79.1537
64.4531	80.1066	64.4531	80.09	64.4531	80.1073	64.4531	80.0582	64.4531	80.0921	64.4531	80.0122	64.4531	80.0615	64.4531	79.954	64.4531	80.0167	64.4531	79.8858	64.4531	79.9594	64.4531	79.8105	64.4531	79.8919	64.4531	79.7312	64.4531	79.817	64.4531	79.6515	64.4531	79.7379	64.4531	79.5748	64.4531	79.6581	64.4531	79.5043	64.4531	79.5812	64.4531	79.4425	64.4531	79.5103	64.4531	79.3911	64.4531	79.448	64.4531	79.3507	64.4531	79.396	64.4531	79.3211	64.4531	79.355	64.4531	79.301	64.4531	79.3246	64.4531	79.2889	64.4531	79.3036	64.4531	79.2836	64.4531	79.2905	64.4531	79.2841
67.3828	80.3178	67.3828	80.2991	67.3828	80.3203	67.3828	80.2647	67.3828	80.3066	67.3828	80.2158	67.3828	80.2773	67.3828	80.1543	67.3828	80.2337	67.3828	80.0825	67.3828	80.1776	67.3828	80.0036	67.3828	80.1114	67.3828	79.9211	67.3828	80.0381	67.3828	79.8388	67.3828	79.9609	67.3828	79.7606	67.3828	79.8834	67.3828	79.69	67.3828	79.809	67.3828	79.6298	67.3828	79.7408	67.3828	79.5819	67.3828	79.6812	67.3828	79.5468	67.3828	79.6317	67.3828	79.5238	67.3828	79.5925	67.3828	79.5111	67.3828	79.5627	67.3828	79.5067	67.3828	79.5409	67.3828	79.5084	67.3828	79.5254	67.3828	79.5148
68.8477	80.4789	68.8477	80.4607	68.8477	80.4803	68.8477	80.4262	68.8477	80.4649	68.8477	80.3766	68.8477	80.4335	68.8477	80.3138	68.8477	80.3875	68.8477	80.2404	68.8477	80.3288	68.8477	80.1596	68.8477	80.26	68.8477	80.075	68.8477	80.1842	68.8477	79.9907	68.8477	80.1047	68.8477	79.9108	68.8477	80.0252	68.8477	79.839	68.8477	79.9492	68.8477	79.778	68.8477	79.8799	68.8477	79.7297	68.8477	79.8196	68.8477	79.6944	68.8477	79.7699	68.8477	79.6712	68.8477	79.731	68.8477	79.6583	68.8477	79.7021	68.8477	79.6531	68.8477	79.6816	68.8477	79.6537	68.8477	79.6676	68.8477	79.6586
