"SPL Vertical"																																																																							
"On-Axis"		"10°"		"-10°"		"20°"		"-20°"		"30°"		"-30°"		"40°"		"-40°"		"50°"		"-50°"		"60°"		"-60°"		"70°"		"-70°"		"80°"		"-80°"		"90°"		"-90°"		"100°"		"-100°"		"110°"		"-110°"		"120°"		"-120°"		"130°"		"-130°"		"140°"		"-140°"		"150°"		"-150°"		"160°"		"-160°"		"170°"		"-170°"		"180°"	
"Frequency [Hz]"	"Sound Pessure Level [dB]  / [2.83V 1m] "	"Frequency [Hz]"	"Sound Pessure Level [dB]  / [2.83V 1m] "	"Frequency [Hz]"	"Sound Pessure Level [dB]  / [2.83V 1m] "	"Frequency [Hz]"	"Sound Pessure Level [dB]  / [2.83V 1m] "	"Frequency [Hz]"	"Sound Pessure Level [dB]  / [2.83V 1m] "	"Frequency [Hz]"	"Sound Pessure Level [dB]  / [2.83V 1m] "	"Frequency [Hz]"	"Sound Pessure Level [dB]  / [2.83V 1m] "	"Frequency [Hz]"	"Sound Pessure Level [dB]  / [2.83V 1m] "	"Frequency [Hz]"	"Sound Pessure Level [dB]  / [2.83V 1m] "	"Frequency [Hz]"	"Sound Pessure Level [dB]  / [2.83V 1m] "	"Frequency [Hz]"	"Sound Pessure Level [dB]  / [2.83V 1m] "	"Frequency [Hz]"	"Sound Pessure Level [dB]  / [2.83V 1m] "	"Frequency [Hz]"	"Sound Pessure Level [dB]  / [2.83V 1m] "	"Frequency [Hz]"	"Sound Pessure Level [dB]  / [2.83V 1m] "	"Frequency [Hz]"	"Sound Pessure Level [dB]  / [2.83V 1m] "	"Frequency [Hz]"	"Sound Pessure Level [dB]  / [2.83V 1m] "	"Frequency [Hz]"	"Sound Pessure Level [dB]  / [2.83V 1m] "	"Frequency [Hz]"	"Sound Pessure Level [dB]  / [2.83V 1m] "	"Frequency [Hz]"	"Sound Pessure Level [dB]  / [2.83V 1m] "	"Frequency [Hz]"	"Sound Pessure Level [dB]  / [2.83V 1m] "	"Frequency [Hz]"	"Sound Pessure Level [dB]  / [2.83V 1m] "	"Frequency [Hz]"	"Sound Pessure Level [dB]  / [2.83V 1m] "	"Frequency [Hz]"	"Sound Pessure Level [dB]  / [2.83V 1m] "	"Frequency [Hz]"	"Sound Pessure Level [dB]  / [2.83V 1m] "	"Frequency [Hz]"	"Sound Pessure Level [dB]  / [2.83V 1m] "	"Frequency [Hz]"	"Sound Pessure Level [dB]  / [2.83V 1m] "	"Frequency [Hz]"	"Sound Pessure Level [dB]  / [2.83V 1m] "	"Frequency [Hz]"	"Sound Pessure Level [dB]  / [2.83V 1m] "	"Frequency [Hz]"	"Sound Pessure Level [dB]  / [2.83V 1m] "	"Frequency [Hz]"	"Sound Pessure Level [dB]  / [2.83V 1m] "	"Frequency [Hz]"	"Sound Pessure Level [dB]  / [2.83V 1m] "	"Frequency [Hz]"	"Sound Pessure Level [dB]  / [2.83V 1m] "	"Frequency [Hz]"	"Sound Pessure Level [dB]  / [2.83V 1m] "	"Frequency [Hz]"	"Sound Pessure Level [dB]  / [2.83V 1m] "	"Frequency [Hz]"	"Sound Pessure Level [dB]  / [2.83V 1m] "	"Frequency [Hz]"	"Sound Pessure Level [dB]  / [2.83V 1m] "
20.5078	63.8449	20.5078	63.7654	20.5078	63.915	20.5078	63.6791	20.5078	63.9731	20.5078	63.5888	20.5078	64.0166	20.5078	63.4968	20.5078	64.0432	20.5078	63.4055	20.5078	64.0511	20.5078	63.3169	20.5078	64.0391	20.5078	63.2333	20.5078	64.0069	20.5078	63.1562	20.5078	63.9549	20.5078	63.0875	20.5078	63.885	20.5078	63.0286	20.5078	63.7996	20.5078	62.9809	20.5078	63.7024	20.5078	62.9455	20.5078	63.5973	20.5078	62.9235	20.5078	63.4889	20.5078	62.9157	20.5078	63.3816	20.5078	62.9227	20.5078	63.2795	20.5078	62.945	20.5078	63.1862	20.5078	62.983	20.5078	63.1045	20.5078	63.0363
21.9727	65.0155	21.9727	64.9415	21.9727	65.0791	21.9727	64.8599	21.9727	65.1296	21.9727	64.7732	21.9727	65.1646	21.9727	64.6839	21.9727	65.1817	21.9727	64.5944	21.9727	65.1794	21.9727	64.5066	21.9727	65.1568	21.9727	64.4226	21.9727	65.1138	21.9727	64.3441	21.9727	65.0514	21.9727	64.2726	21.9727	64.972	21.9727	64.2097	21.9727	64.8787	21.9727	64.1565	21.9727	64.7754	21.9727	64.1142	21.9727	64.6669	21.9727	64.0839	21.9727	64.5578	21.9727	64.0664	21.9727	64.4529	21.9727	64.0627	21.9727	64.356	21.9727	64.0736	21.9727	64.2703	21.9727	64.0996	21.9727	64.1983	21.9727	64.1412
23.4375	66.3425	23.4375	66.26	23.4375	66.4163	23.4375	66.1717	23.4375	66.4788	23.4375	66.0801	23.4375	66.5273	23.4375	65.9877	23.4375	66.5596	23.4375	65.8969	23.4375	66.5737	23.4375	65.8097	23.4375	66.5681	23.4375	65.728	23.4375	66.5423	23.4375	65.6537	23.4375	66.4965	23.4375	65.5883	23.4375	66.432	23.4375	65.5331	23.4375	66.351	23.4375	65.4894	23.4375	66.2567	23.4375	65.4583	23.4375	66.1531	23.4375	65.4407	23.4375	66.0446	23.4375	65.4374	23.4375	65.9359	23.4375	65.4489	23.4375	65.8312	23.4375	65.4758	23.4375	65.7345	23.4375	65.5183	23.4375	65.6487	23.4375	65.5762
24.9023	67.166	24.9023	67.0876	24.9023	67.2356	24.9023	67.0031	24.9023	67.2937	24.9023	66.9149	24.9023	67.3378	24.9023	66.8256	24.9023	67.3658	24.9023	66.7376	24.9023	67.3758	24.9023	66.6531	24.9023	67.3668	24.9023	66.574	24.9023	67.3384	24.9023	66.5022	24.9023	67.2911	24.9023	66.4393	24.9023	67.2266	24.9023	66.3866	24.9023	67.1473	24.9023	66.3452	24.9023	67.0566	24.9023	66.3162	24.9023	66.9583	24.9023	66.3003	24.9023	66.8568	24.9023	66.2978	24.9023	66.7561	24.9023	66.3093	24.9023	66.66	24.9023	66.3347	24.9023	66.5716	24.9023	66.3741	24.9023	66.4935	24.9023	66.4273
26.3672	67.9822	26.3672	67.9044	26.3672	68.0504	26.3672	67.8199	26.3672	68.1064	26.3672	67.7313	26.3672	68.1476	26.3672	67.6411	26.3672	68.1718	26.3672	67.5518	26.3672	68.1771	26.3672	67.4656	26.3672	68.1626	26.3672	67.3844	26.3672	68.1279	26.3672	67.3101	26.3672	68.074	26.3672	67.2442	26.3672	68.0026	26.3672	67.1881	26.3672	67.9167	26.3672	67.1429	26.3672	67.8201	26.3672	67.1096	26.3672	67.7171	26.3672	67.0889	26.3672	67.6122	26.3672	67.0814	26.3672	67.5098	26.3672	67.0874	26.3672	67.4136	26.3672	67.1074	26.3672	67.3269	26.3672	67.1415	26.3672	67.2518	26.3672	67.1897
27.832	68.9072	27.832	68.8299	27.832	68.9748	27.832	68.7457	27.832	69.0301	27.832	68.6572	27.832	69.0708	27.832	68.5668	27.832	69.0945	27.832	68.4771	27.832	69.0997	27.832	68.3902	27.832	69.0854	27.832	68.3082	27.832	69.0513	27.832	68.2331	27.832	68.9983	27.832	68.1664	27.832	68.9282	27.832	68.1097	27.832	68.8439	27.832	68.0642	27.832	68.749	27.832	68.031	27.832	68.6476	27.832	68.0108	27.832	68.544	27.832	68.0043	27.832	68.4424	27.832	68.0118	27.832	68.3466	27.832	68.0336	27.832	68.2594	27.832	68.0696	27.832	68.1833	27.832	68.1197
29.2969	69.747	29.2969	69.668	29.2969	69.8154	29.2969	69.5812	29.2969	69.8706	29.2969	69.4893	29.2969	69.9101	29.2969	69.3947	29.2969	69.9315	29.2969	69.3	29.2969	69.9331	29.2969	69.2075	29.2969	69.9138	29.2969	69.1192	29.2969	69.8734	29.2969	69.037	29.2969	69.8127	29.2969	68.9628	29.2969	69.7336	29.2969	68.8979	29.2969	69.6391	29.2969	68.8439	29.2969	69.5332	29.2969	68.8019	29.2969	69.4206	29.2969	68.773	29.2969	69.3062	29.2969	68.7582	29.2969	69.1948	29.2969	68.7582	29.2969	69.0908	29.2969	68.7739	29.2969	68.9977	29.2969	68.8057	29.2969	68.9181	29.2969	68.8538
30.7617	70.481	30.7617	70.4005	30.7617	70.5519	30.7617	70.3132	30.7617	70.6104	30.7617	70.222	30.7617	70.6538	30.7617	70.1294	30.7617	70.6796	30.7617	70.0378	30.7617	70.6858	30.7617	69.9495	30.7617	70.6712	30.7617	69.8665	30.7617	70.6355	30.7617	69.7905	30.7617	70.5793	30.7617	69.7233	30.7617	70.5047	30.7617	69.666	30.7617	70.4149	30.7617	69.6198	30.7617	70.3139	30.7617	69.5857	30.7617	70.2064	30.7617	69.5643	30.7617	70.0975	30.7617	69.5563	30.7617	69.9916	30.7617	69.562	30.7617	69.8927	30.7617	69.5819	30.7617	69.804	30.7617	69.6161	30.7617	69.7276	30.7617	69.6647
32.2266	71.2053	32.2266	71.1279	32.2266	71.2733	32.2266	71.0438	32.2266	71.3292	32.2266	70.9558	32.2266	71.3705	32.2266	70.8665	32.2266	71.395	32.2266	70.7783	32.2266	71.401	32.2266	70.6934	32.2266	71.3875	32.2266	70.614	32.2266	71.3543	32.2266	70.5418	32.2266	71.3023	32.2266	70.4785	32.2266	71.2334	32.2266	70.4253	32.2266	71.1504	32.2266	70.3834	32.2266	71.0571	32.2266	70.3535	32.2266	70.9576	32.2266	70.3362	32.2266	70.8565	32.2266	70.3318	32.2266	70.7578	32.2266	70.3406	32.2266	70.665	32.2266	70.3626	32.2266	70.5809	32.2266	70.398	32.2266	70.5077	32.2266	70.4464
33.6914	71.9056	33.6914	71.8283	33.6914	71.9731	33.6914	71.7439	33.6914	72.028	33.6914	71.6553	33.6914	72.0679	33.6914	71.5649	33.6914	72.0906	33.6914	71.4755	33.6914	72.0944	33.6914	71.3893	33.6914	72.0784	33.6914	71.3085	33.6914	72.0427	33.6914	71.2351	33.6914	71.9883	33.6914	71.1707	33.6914	71.9173	33.6914	71.1166	33.6914	71.8327	33.6914	71.074	33.6914	71.7385	33.6914	71.0438	33.6914	71.6389	33.6914	71.0263	33.6914	71.5384	33.6914	71.0219	33.6914	71.4408	33.6914	71.0306	33.6914	71.3494	33.6914	71.0525	33.6914	71.267	33.6914	71.0874	33.6914	71.1952	33.6914	71.1351
35.1563	72.6295	35.1563	72.5509	35.1563	72.698	35.1563	72.4649	35.1563	72.7536	35.1563	72.3746	35.1563	72.7936	35.1563	72.2826	35.1563	72.8159	35.1563	72.1916	35.1563	72.8188	35.1563	72.104	35.1563	72.8014	35.1563	72.022	35.1563	72.7636	35.1563	71.9477	35.1563	72.7066	35.1563	71.8827	35.1563	72.6327	35.1563	71.8284	35.1563	72.5452	35.1563	71.7858	35.1563	72.4482	35.1563	71.7555	35.1563	72.3463	35.1563	71.7381	35.1563	72.244	35.1563	71.7336	35.1563	72.1456	35.1563	71.742	35.1563	72.0543	35.1563	71.7632	35.1563	71.9726	35.1563	71.797	35.1563	71.902	35.1563	71.8433
36.6211	73.2104	36.6211	73.131	36.6211	73.2798	36.6211	73.0444	36.6211	73.3364	36.6211	72.9535	36.6211	73.3776	36.6211	72.8608	36.6211	73.4013	36.6211	72.7692	36.6211	73.4057	36.6211	72.681	36.6211	73.39	36.6211	72.5983	36.6211	73.3539	36.6211	72.5234	36.6211	73.2985	36.6211	72.4577	36.6211	73.2258	36.6211	72.4027	36.6211	73.1389	36.6211	72.3594	36.6211	73.0418	36.6211	72.3287	36.6211	72.9389	36.6211	72.3109	36.6211	72.8348	36.6211	72.3063	36.6211	72.7338	36.6211	72.3149	36.6211	72.6395	36.6211	72.3367	36.6211	72.5547	36.6211	72.3718	36.6211	72.4811	36.6211	72.42
38.0859	73.8256	38.0859	73.7471	38.0859	73.8948	38.0859	73.6622	38.0859	73.9521	38.0859	73.5738	38.0859	73.9949	38.0859	73.4846	38.0859	74.021	38.0859	73.3971	38.0859	74.0289	38.0859	73.3137	38.0859	74.0177	38.0859	73.2367	38.0859	73.9874	38.0859	73.1678	38.0859	73.9388	38.0859	73.1088	38.0859	73.8741	38.0859	73.0608	38.0859	73.796	38.0859	73.0247	38.0859	73.7081	38.0859	73.001	38.0859	73.6143	38.0859	72.9901	38.0859	73.5187	38.0859	72.9919	38.0859	73.425	38.0859	73.0062	38.0859	73.3363	38.0859	73.0329	38.0859	73.2551	38.0859	73.0715	38.0859	73.1832	38.0859	73.1218
39.5508	74.3925	39.5508	74.314	39.5508	74.4611	39.5508	74.2285	39.5508	74.5169	39.5508	74.139	39.5508	74.5575	39.5508	74.0482	39.5508	74.5807	39.5508	73.9588	39.5508	74.5849	39.5508	73.8734	39.5508	74.5693	39.5508	73.7942	39.5508	74.5342	39.5508	73.7231	39.5508	74.4806	39.5508	73.6617	39.5508	74.4108	39.5508	73.6114	39.5508	74.3281	39.5508	73.5728	39.5508	74.2361	39.5508	73.5467	39.5508	74.1392	39.5508	73.533	39.5508	74.0414	39.5508	73.5319	39.5508	73.9467	39.5508	73.5432	39.5508	73.8582	39.5508	73.5667	39.5508	73.7781	39.5508	73.6021	39.5508	73.7082	39.5508	73.6494
41.0156	74.9663	41.0156	74.8889	41.0156	75.034	41.0156	74.8047	41.0156	75.0892	41.0156	74.7171	41.0156	75.1293	41.0156	74.6291	41.0156	75.1527	41.0156	74.5438	41.0156	75.1582	41.0156	74.4641	41.0156	75.1457	41.0156	74.3924	41.0156	75.116	41.0156	74.3308	41.0156	75.0708	41.0156	74.2811	41.0156	75.0128	41.0156	74.2444	41.0156	74.9453	41.0156	74.2213	41.0156	74.8717	41.0156	74.2118	41.0156	74.7954	41.0156	74.2156	41.0156	74.7192	41.0156	74.2317	41.0156	74.6453	41.0156	74.2586	41.0156	74.5749	41.0156	74.295	41.0156	74.5087	41.0156	74.3394	41.0156	74.447	41.0156	74.3904
42.4805	75.4419	42.4805	75.3604	42.4805	75.5108	42.4805	75.2693	42.4805	75.5644	42.4805	75.1716	42.4805	75.6004	42.4805	75.0705	42.4805	75.6168	42.4805	74.9691	42.4805	75.6124	42.4805	74.8702	42.4805	75.5869	42.4805	74.7766	42.4805	75.5408	42.4805	74.691	42.4805	75.4757	42.4805	74.6154	42.4805	75.3943	42.4805	74.5517	42.4805	75.3003	42.4805	74.5014	42.4805	75.1976	42.4805	74.4654	42.4805	75.0908	42.4805	74.4444	42.4805	74.9842	42.4805	74.4384	42.4805	74.8814	42.4805	74.4474	42.4805	74.7855	42.4805	74.4709	42.4805	74.6989	42.4805	74.5084	42.4805	74.6232	42.4805	74.5594
43.9453	75.9486	43.9453	75.8669	43.9453	76.018	43.9453	75.7759	43.9453	76.0725	43.9453	75.6788	43.9453	76.1096	43.9453	75.5787	43.9453	76.1278	43.9453	75.4789	43.9453	76.1258	43.9453	75.3824	43.9453	76.1038	43.9453	75.2921	43.9453	76.0623	43.9453	75.2108	43.9453	76.0034	43.9453	75.1406	43.9453	75.9297	43.9453	75.0834	43.9453	75.8447	43.9453	75.0406	43.9453	75.7523	43.9453	75.0131	43.9453	75.6561	43.9453	75.0011	43.9453	75.5598	43.9453	75.0045	43.9453	75.466	43.9453	75.0226	43.9453	75.3771	43.9453	75.0545	43.9453	75.2947	43.9453	75.0988	43.9453	75.2201	43.9453	75.1544
45.4102	76.4654	45.4102	76.3812	45.4102	76.5369	45.4102	76.2871	45.4102	76.5928	45.4102	76.1862	45.4102	76.6308	45.4102	76.0816	45.4102	76.649	45.4102	75.9765	45.4102	76.6464	45.4102	75.8739	45.4102	76.6226	45.4102	75.7767	45.4102	76.5781	45.4102	75.6878	45.4102	76.5146	45.4102	75.6096	45.4102	76.435	45.4102	75.5442	45.4102	76.3426	45.4102	75.4935	45.4102	76.2416	45.4102	75.4586	45.4102	76.1361	45.4102	75.4404	45.4102	76.0302	45.4102	75.4389	45.4102	75.9271	45.4102	75.4539	45.4102	75.8296	45.4102	75.4846	45.4102	75.7396	45.4102	75.5299	45.4102	75.6587	45.4102	75.5884
46.875	77.0035	46.875	76.9176	46.875	77.0755	46.875	76.8209	46.875	77.1308	46.875	76.7163	46.875	77.167	46.875	76.6068	46.875	77.1818	46.875	76.4953	46.875	77.1739	46.875	76.3847	46.875	77.1424	46.875	76.2777	46.875	77.0876	46.875	76.177	46.875	77.0111	46.875	76.085	46.875	76.9155	46.875	76.0039	46.875	76.8045	46.875	75.9357	46.875	76.6827	46.875	75.8822	46.875	76.5552	46.875	75.8447	46.875	76.4273	46.875	75.8245	46.875	76.3038	46.875	75.8222	46.875	76.1889	46.875	75.8385	46.875	76.0862	46.875	75.8735	46.875	75.9983	46.875	75.9269
48.3398	77.2975	48.3398	77.215	48.3398	77.3673	48.3398	77.1227	48.3398	77.4219	48.3398	77.0236	48.3398	77.459	48.3398	76.9207	48.3398	77.4767	48.3398	76.8168	48.3398	77.4738	48.3398	76.715	48.3398	77.45	48.3398	76.6179	48.3398	77.4058	48.3398	76.5281	48.3398	77.3427	48.3398	76.4479	48.3398	77.263	48.3398	76.3795	48.3398	77.17	48.3398	76.3246	48.3398	77.0674	48.3398	76.2846	48.3398	76.9591	48.3398	76.2604	48.3398	76.8491	48.3398	76.2529	48.3398	76.7412	48.3398	76.2622	48.3398	76.6385	48.3398	76.2883	48.3398	76.5439	48.3398	76.3305	48.3398	76.4598	48.3398	76.3881
51.2695	77.9795	51.2695	77.8995	51.2695	78.0467	51.2695	77.8097	51.2695	78.0986	51.2695	77.7132	51.2695	78.133	51.2695	77.6129	51.2695	78.1484	51.2695	77.5122	51.2695	78.1437	51.2695	77.4139	51.2695	78.1191	51.2695	77.321	51.2695	78.0755	51.2695	77.2362	51.2695	78.0148	51.2695	77.1618	51.2695	77.9397	51.2695	77.0999	51.2695	77.8536	51.2695	77.0519	51.2695	77.7602	51.2695	77.0192	51.2695	77.6629	51.2695	77.0024	51.2695	77.565	51.2695	77.0016	51.2695	77.4692	51.2695	77.0166	51.2695	77.3777	51.2695	77.0466	51.2695	77.2924	51.2695	77.0907	51.2695	77.2151	51.2695	77.1473
52.7344	78.3279	52.7344	78.2491	52.7344	78.3938	52.7344	78.1601	52.7344	78.4441	52.7344	78.0641	52.7344	78.4767	52.7344	77.9642	52.7344	78.4902	52.7344	77.8636	52.7344	78.4836	52.7344	77.7653	52.7344	78.4572	52.7344	77.6722	52.7344	78.4119	52.7344	77.5872	52.7344	78.35	52.7344	77.5127	52.7344	78.2742	52.7344	77.4507	52.7344	78.1881	52.7344	77.4028	52.7344	78.0953	52.7344	77.3703	52.7344	77.9993	52.7344	77.3536	52.7344	77.9033	52.7344	77.3529	52.7344	77.8098	52.7344	77.3679	52.7344	77.7207	52.7344	77.3976	52.7344	77.6378	52.7344	77.441	52.7344	77.5626	52.7344	77.4965
54.1992	78.6182	54.1992	78.5404	54.1992	78.6829	54.1992	78.4522	54.1992	78.7318	54.1992	78.3567	54.1992	78.763	54.1992	78.2571	54.1992	78.7747	54.1992	78.1565	54.1992	78.7665	54.1992	78.058	54.1992	78.7383	54.1992	77.9646	54.1992	78.6915	54.1992	77.879	54.1992	78.6279	54.1992	77.8035	54.1992	78.5507	54.1992	77.7404	54.1992	78.4632	54.1992	77.6911	54.1992	78.3692	54.1992	77.657	54.1992	78.2724	54.1992	77.6385	54.1992	78.1758	54.1992	77.6359	54.1992	78.0821	54.1992	77.6489	54.1992	77.9932	54.1992	77.6767	54.1992	77.911	54.1992	77.7182	54.1992	77.8368	54.1992	77.772
55.6641	78.8814	55.6641	78.8032	55.6641	78.9471	55.6641	78.7155	55.6641	78.9977	55.6641	78.6215	55.6641	79.0313	55.6641	78.5243	55.6641	79.0462	55.6641	78.4273	55.6641	79.0418	55.6641	78.3335	55.6641	79.0186	55.6641	78.246	55.6641	78.9776	55.6641	78.1673	55.6641	78.921	55.6641	78.0996	55.6641	78.8517	55.6641	78.0449	55.6641	78.7731	55.6641	78.0045	55.6641	78.6884	55.6641	77.9793	55.6641	78.6009	55.6641	77.9694	55.6641	78.5131	55.6641	77.9748	55.6641	78.4271	55.6641	77.9948	55.6641	78.3444	55.6641	78.0282	55.6641	78.2664	55.6641	78.0736	55.6641	78.1943	55.6641	78.1295
58.5938	79.3905	58.5938	79.3084	58.5938	79.4587	58.5938	79.2156	58.5938	79.5103	58.5938	79.1154	58.5938	79.5431	58.5938	79.0115	58.5938	79.5558	58.5938	78.9074	58.5938	79.5477	58.5938	78.8066	58.5938	79.5194	58.5938	78.7124	58.5938	79.4724	58.5938	78.6278	58.5938	79.4091	58.5938	78.5553	58.5938	79.333	58.5938	78.4968	58.5938	79.2478	58.5938	78.4538	58.5938	79.1572	58.5938	78.4272	58.5938	79.0647	58.5938	78.417	58.5938	78.9731	58.5938	78.4228	58.5938	78.8843	58.5938	78.4436	58.5938	78.7997	58.5938	78.4781	58.5938	78.7204	58.5938	78.5247	58.5938	78.6474	58.5938	78.5817
60.0586	79.6005	60.0586	79.5173	60.0586	79.6699	60.0586	79.4235	60.0586	79.7227	60.0586	79.3226	60.0586	79.7569	60.0586	79.2182	60.0586	79.7709	60.0586	79.1139	60.0586	79.7644	60.0586	79.0134	60.0586	79.7377	60.0586	78.92	60.0586	79.6926	60.0586	78.8366	60.0586	79.6315	60.0586	78.7659	60.0586	79.5579	60.0586	78.7099	60.0586	79.4754	60.0586	78.67	60.0586	79.3876	60.0586	78.6467	60.0586	79.298	60.0586	78.6402	60.0586	79.2089	60.0586	78.6498	60.0586	79.1223	60.0586	78.6743	60.0586	79.0392	60.0586	78.7122	60.0586	78.9606	60.0586	78.7615	60.0586	78.8873	60.0586	78.8205
62.9883	79.9929	62.9883	79.9111	62.9883	80.0595	62.9883	79.8172	62.9883	80.1085	62.9883	79.7148	62.9883	80.1377	62.9883	79.6075	62.9883	80.146	62.9883	79.4991	62.9883	80.1333	62.9883	79.3934	62.9883	80.1003	62.9883	79.2941	62.9883	80.0489	62.9883	79.2045	62.9883	79.9819	62.9883	79.1275	62.9883	79.9029	62.9883	79.0654	62.9883	79.8158	62.9883	79.02	62.9883	79.7245	62.9883	78.9921	62.9883	79.6322	62.9883	78.9818	62.9883	79.5416	62.9883	78.9885	62.9883	79.4541	62.9883	79.0109	62.9883	79.3709	62.9883	79.0472	62.9883	79.2926	62.9883	79.0955	62.9883	79.2198	62.9883	79.1537
64.4531	80.1066	64.4531	80.0243	64.4531	80.1737	64.4531	79.93	64.4531	80.223	64.4531	79.827	64.4531	80.2528	64.4531	79.7191	64.4531	80.2619	64.4531	79.6102	64.4531	80.2501	64.4531	79.504	64.4531	80.2183	64.4531	79.4043	64.4531	80.1685	64.4531	79.3145	64.4531	80.1034	64.4531	79.2377	64.4531	80.0266	64.4531	79.1763	64.4531	79.9419	64.4531	79.1321	64.4531	79.853	64.4531	79.1059	64.4531	79.763	64.4531	79.0978	64.4531	79.6741	64.4531	79.1072	64.4531	79.5879	64.4531	79.1326	64.4531	79.5051	64.4531	79.1721	64.4531	79.4264	64.4531	79.2234	64.4531	79.3523	64.4531	79.2841
67.3828	80.3178	67.3828	80.2347	67.3828	80.3855	67.3828	80.1392	67.3828	80.4352	67.3828	80.0348	67.3828	80.4651	67.3828	79.9253	67.3828	80.4744	67.3828	79.8145	67.3828	80.4631	67.3828	79.7066	67.3828	80.4323	67.3828	79.6053	67.3828	80.384	67.3828	79.5144	67.3828	80.3214	67.3828	79.4369	67.3828	80.2478	67.3828	79.3756	67.3828	80.167	67.3828	79.3323	67.3828	80.0823	67.3828	79.3082	67.3828	79.9963	67.3828	79.3033	67.3828	79.9107	67.3828	79.3168	67.3828	79.8265	67.3828	79.3472	67.3828	79.7441	67.3828	79.3921	67.3828	79.6641	67.3828	79.4489	67.3828	79.5872	67.3828	79.5148
68.8477	80.4789	68.8477	80.3934	68.8477	80.5483	68.8477	80.2948	68.8477	80.599	68.8477	80.1867	68.8477	80.6291	68.8477	80.0732	68.8477	80.638	68.8477	79.9583	68.8477	80.6256	68.8477	79.8462	68.8477	80.5935	68.8477	79.7409	68.8477	80.5438	68.8477	79.6463	68.8477	80.4798	68.8477	79.5659	68.8477	80.4053	68.8477	79.5023	68.8477	80.3239	68.8477	79.4578	68.8477	80.239	68.8477	79.4334	68.8477	80.1529	68.8477	79.4294	68.8477	80.067	68.8477	79.445	68.8477	79.982	68.8477	79.4784	68.8477	79.898	68.8477	79.5272	68.8477	79.8155	68.8477	79.5883	68.8477	79.7351	68.8477	79.6586
