"SPL Vertical"																																																																							
"On-Axis"		"10°"		"-10°"		"20°"		"-20°"		"30°"		"-30°"		"40°"		"-40°"		"50°"		"-50°"		"60°"		"-60°"		"70°"		"-70°"		"80°"		"-80°"		"90°"		"-90°"		"100°"		"-100°"		"110°"		"-110°"		"120°"		"-120°"		"130°"		"-130°"		"140°"		"-140°"		"150°"		"-150°"		"160°"		"-160°"		"170°"		"-170°"		"180°"	
"Frequency [Hz]"	"Sound Pessure Level [dB]  / [2.83V 1m] "	"Frequency [Hz]"	"Sound Pessure Level [dB]  / [2.83V 1m] "	"Frequency [Hz]"	"Sound Pessure Level [dB]  / [2.83V 1m] "	"Frequency [Hz]"	"Sound Pessure Level [dB]  / [2.83V 1m] "	"Frequency [Hz]"	"Sound Pessure Level [dB]  / [2.83V 1m] "	"Frequency [Hz]"	"Sound Pessure Level [dB]  / [2.83V 1m] "	"Frequency [Hz]"	"Sound Pessure Level [dB]  / [2.83V 1m] "	"Frequency [Hz]"	"Sound Pessure Level [dB]  / [2.83V 1m] "	"Frequency [Hz]"	"Sound Pessure Level [dB]  / [2.83V 1m] "	"Frequency [Hz]"	"Sound Pessure Level [dB]  / [2.83V 1m] "	"Frequency [Hz]"	"Sound Pessure Level [dB]  / [2.83V 1m] "	"Frequency [Hz]"	"Sound Pessure Level [dB]  / [2.83V 1m] "	"Frequency [Hz]"	"Sound Pessure Level [dB]  / [2.83V 1m] "	"Frequency [Hz]"	"Sound Pessure Level [dB]  / [2.83V 1m] "	"Frequency [Hz]"	"Sound Pessure Level [dB]  / [2.83V 1m] "	"Frequency [Hz]"	"Sound Pessure Level [dB]  / [2.83V 1m] "	"Frequency [Hz]"	"Sound Pessure Level [dB]  / [2.83V 1m] "	"Frequency [Hz]"	"Sound Pessure Level [dB]  / [2.83V 1m] "	"Frequency [Hz]"	"Sound Pessure Level [dB]  / [2.83V 1m] "	"Frequency [Hz]"	"Sound Pessure Level [dB]  / [2.83V 1m] "	"Frequency [Hz]"	"Sound Pessure Level [dB]  / [2.83V 1m] "	"Frequency [Hz]"	"Sound Pessure Level [dB]  / [2.83V 1m] "	"Frequency [Hz]"	"Sound Pessure Level [dB]  / [2.83V 1m] "	"Frequency [Hz]"	"Sound Pessure Level [dB]  / [2.83V 1m] "	"Frequency [Hz]"	"Sound Pessure Level [dB]  / [2.83V 1m] "	"Frequency [Hz]"	"Sound Pessure Level [dB]  / [2.83V 1m] "	"Frequency [Hz]"	"Sound Pessure Level [dB]  / [2.83V 1m] "	"Frequency [Hz]"	"Sound Pessure Level [dB]  / [2.83V 1m] "	"Frequency [Hz]"	"Sound Pessure Level [dB]  / [2.83V 1m] "	"Frequency [Hz]"	"Sound Pessure Level [dB]  / [2.83V 1m] "	"Frequency [Hz]"	"Sound Pessure Level [dB]  / [2.83V 1m] "	"Frequency [Hz]"	"Sound Pessure Level [dB]  / [2.83V 1m] "	"Frequency [Hz]"	"Sound Pessure Level [dB]  / [2.83V 1m] "	"Frequency [Hz]"	"Sound Pessure Level [dB]  / [2.83V 1m] "	"Frequency [Hz]"	"Sound Pessure Level [dB]  / [2.83V 1m] "	"Frequency [Hz]"	"Sound Pessure Level [dB]  / [2.83V 1m] "
20.5078	54.5456	20.5078	53.1082	20.5078	55.7078	20.5078	51.4241	20.5078	56.6114	20.5078	49.706	20.5078	57.2764	20.5078	48.6131	20.5078	57.7165	20.5078	48.9567	20.5078	57.9368	20.5078	50.4725	20.5078	57.9342	20.5078	52.2793	20.5078	57.6969	20.5078	53.9207	20.5078	57.2033	20.5078	55.2817	20.5078	56.4195	20.5078	56.3575	20.5078	55.2958	20.5078	57.1643	20.5078	53.7676	20.5078	57.7154	20.5078	51.7881	20.5078	58.0152	20.5078	49.5321	20.5078	58.0588	20.5078	48.0937	20.5078	57.8312	20.5078	49.0344	20.5078	57.3066	20.5078	51.3213	20.5078	56.4462	20.5078	53.4926	20.5078	55.196
21.9727	55.4294	21.9727	53.8314	21.9727	56.7098	21.9727	51.951	21.9727	57.6996	21.9727	50.1074	21.9727	58.4283	21.9727	49.273	21.9727	58.9159	21.9727	50.2395	21.9727	59.1716	21.9727	52.1841	21.9727	59.195	21.9727	54.148	21.9727	58.9758	21.9727	55.8219	21.9727	58.4936	21.9727	57.1718	21.9727	57.7158	21.9727	58.2229	21.9727	56.5949	21.9727	59.0021	21.9727	55.0723	21.9727	59.5261	21.9727	53.1189	21.9727	59.8008	21.9727	50.964	21.9727	59.8217	21.9727	49.7581	21.9727	59.5747	21.9727	50.8455	21.9727	59.0354	21.9727	53.1095	21.9727	58.1674	21.9727	55.2389	21.9727	56.921
23.4375	56.3085	23.4375	54.8332	23.4375	57.5442	23.4375	53.268	23.4375	58.5178	23.4375	52.0872	23.4375	59.2387	23.4375	52.0379	23.4375	59.7186	23.4375	53.2226	23.4375	59.9629	23.4375	54.93	23.4375	59.9692	23.4375	56.6076	23.4375	59.7264	23.4375	58.0623	23.4375	59.2144	23.4375	59.2585	23.4375	58.4033	23.4375	60.2042	23.4375	57.2563	23.4375	60.9128	23.4375	55.75	23.4375	61.3928	23.4375	53.9673	23.4375	61.6458	23.4375	52.4077	23.4375	61.666	23.4375	52.2139	23.4375	61.4409	23.4375	53.6967	23.4375	60.9504	23.4375	55.7334	23.4375	60.167	23.4375	57.5787	23.4375	59.0554
24.9023	57.0428	24.9023	55.6022	24.9023	58.2874	24.9023	54.1865	24.9023	59.2828	24.9023	53.3446	24.9023	60.0275	24.9023	53.6777	24.9023	60.5301	24.9023	55.0167	24.9023	60.7955	24.9023	56.6911	24.9023	60.822	24.9023	58.2834	24.9023	60.5999	24.9023	59.6563	24.9023	60.1108	24.9023	60.7859	24.9023	59.3283	24.9023	61.6797	24.9023	58.2227	24.9023	62.3481	24.9023	56.7857	24.9023	62.7974	24.9023	55.1332	24.9023	63.0271	24.9023	53.7917	24.9023	63.0306	24.9023	53.7773	24.9023	62.7947	24.9023	55.2458	24.9023	62.3	24.9023	57.1994	24.9023	61.5207	24.9023	58.983	24.9023	60.4251
26.3672	58.5605	26.3672	57.3581	26.3672	59.6575	26.3672	56.2784	26.3672	60.564	26.3672	55.7395	26.3672	61.2561	26.3672	56.0908	26.3672	61.7292	26.3672	57.1906	26.3672	61.982	26.3672	58.5966	26.3672	62.01	26.3672	59.9873	26.3672	61.804	26.3672	61.2238	26.3672	61.3498	26.3672	62.2629	26.3672	60.6301	26.3672	63.0965	26.3672	59.6335	26.3672	63.7253	26.3672	58.3863	26.3672	64.1499	26.3672	57.0457	26.3672	64.3667	26.3672	56.0781	26.3672	64.368	26.3672	56.1658	26.3672	64.1413	26.3672	57.3664	26.3672	63.6699	26.3672	59.0149	26.3672	62.9335	26.3672	60.5929	26.3672	61.9112
27.832	59.0555	27.832	58.0266	27.832	60.0906	27.832	57.3065	27.832	60.9839	27.832	57.2713	27.832	61.6791	27.832	58.0246	27.832	62.1573	27.832	59.2707	27.832	62.4104	27.832	60.6501	27.832	62.431	27.832	61.9543	27.832	62.2082	27.832	63.0996	27.832	61.7273	27.832	64.0601	27.832	60.9733	27.832	64.8311	27.832	59.9463	27.832	65.4127	27.832	58.7103	27.832	65.8036	27.832	57.522	27.832	65.9994	27.832	56.9739	27.832	65.9914	27.832	57.5997	27.832	65.7672	27.832	59.1006	27.832	65.3106	27.832	60.8081	27.832	64.6022	27.832	62.3524	27.832	63.6214
29.2969	60.5871	29.2969	59.7288	29.2969	61.4744	29.2969	59.1384	29.2969	62.257	29.2969	59.0915	29.2969	62.874	29.2969	59.6815	29.2969	63.2994	29.2969	60.721	29.2969	63.5205	29.2969	61.9329	29.2969	63.5282	29.2969	63.1237	29.2969	63.3142	29.2969	64.1976	29.2969	62.8718	29.2969	65.1155	29.2969	62.2033	29.2969	65.8634	29.2969	61.3399	29.2969	66.4359	29.2969	60.3895	29.2969	66.8293	29.2969	59.6123	29.2969	67.0384	29.2969	59.4145	29.2969	67.0557	29.2969	60.0313	29.2969	66.8715	29.2969	61.2344	29.2969	66.4742	29.2969	62.6147	29.2969	65.852	29.2969	63.9055	29.2969	64.9954
30.7617	61.7843	30.7617	61.1739	30.7617	62.514	30.7617	60.8915	30.7617	63.2116	30.7617	61.1018	30.7617	63.7926	30.7617	61.7909	30.7617	64.2147	30.7617	62.7817	30.7617	64.4573	30.7617	63.8755	30.7617	64.5094	30.7617	64.9374	30.7617	64.3649	30.7617	65.896	30.7617	64.0238	30.7617	66.7181	30.7617	63.4987	30.7617	67.3888	30.7617	62.8318	30.7617	67.9001	30.7617	62.1281	30.7617	68.2457	30.7617	61.5934	30.7617	68.4183	30.7617	61.5045	30.7617	68.4097	30.7617	62.0197	30.7617	68.2101	30.7617	63.0124	30.7617	67.8097	30.7617	64.2028	30.7617	67.2007	30.7617	65.3658	30.7617	66.3814
32.2266	62.0692	32.2266	61.6483	32.2266	62.7219	32.2266	61.6675	32.2266	63.412	32.2266	62.2042	32.2266	64.0169	32.2266	63.1356	32.2266	64.4718	32.2266	64.2524	32.2266	64.744	32.2266	65.3869	32.2266	64.8157	32.2266	66.4434	32.2266	64.6764	32.2266	67.3765	32.2266	64.3222	32.2266	68.1666	32.2266	63.7633	32.2266	68.8049	32.2266	63.0456	32.2266	69.286	32.2266	62.2962	32.2266	69.6042	32.2266	61.778	32.2266	69.7521	32.2266	61.8335	32.2266	69.7203	32.2266	62.5973	32.2266	69.4975	32.2266	63.8349	32.2266	69.0714	32.2266	65.203	32.2266	68.4301	32.2266	66.479	32.2266	67.5651
33.6914	64.7887	33.6914	64.8202	33.6914	64.9539	33.6914	65.1088	33.6914	65.222	33.6914	65.6505	33.6914	65.5025	33.6914	66.3811	33.6914	65.7262	33.6914	67.2125	33.6914	65.8479	33.6914	68.0654	33.6914	65.8416	33.6914	68.8826	33.6914	65.6992	33.6914	69.6268	33.6914	65.4328	33.6914	70.275	33.6914	65.0849	33.6914	70.8119	33.6914	64.7428	33.6914	71.2263	33.6914	64.5473	33.6914	71.5084	33.6914	64.6583	33.6914	71.649	33.6914	65.1639	33.6914	71.6388	33.6914	66.0093	33.6914	71.4687	33.6914	67.0404	33.6914	71.1306	33.6914	68.1017	33.6914	70.6193	33.6914	69.0862	33.6914	69.9346
35.1563	67.033	35.1563	66.9877	35.1563	67.2121	35.1563	67.1297	35.1563	67.4566	35.1563	67.4759	35.1563	67.7033	35.1563	67.9994	35.1563	67.9032	35.1563	68.6433	35.1563	68.0234	35.1563	69.3431	35.1563	68.0454	35.1563	70.043	35.1563	67.965	35.1563	70.7011	35.1563	67.7933	35.1563	71.2879	35.1563	67.5622	35.1563	71.7825	35.1563	67.3302	35.1563	72.1698	35.1563	67.1832	35.1563	72.4376	35.1563	67.2193	35.1563	72.5755	35.1563	67.5086	35.1563	72.5745	35.1563	68.0518	35.1563	72.4272	35.1563	68.7781	35.1563	72.1291	35.1563	69.5845	35.1563	71.6804	35.1563	70.3773	35.1563	71.0894
36.6211	68.3721	36.6211	68.3694	36.6211	68.5073	36.6211	68.5402	36.6211	68.7174	36.6211	68.8921	36.6211	68.9448	36.6211	69.3969	36.6211	69.1428	36.6211	70.0035	36.6211	69.2786	36.6211	70.6555	36.6211	69.333	36.6211	71.3041	36.6211	69.2999	36.6211	71.9118	36.6211	69.1867	36.6211	72.4513	36.6211	69.0179	36.6211	72.9032	36.6211	68.8383	36.6211	73.2524	36.6211	68.7144	36.6211	73.487	36.6211	68.7247	36.6211	73.5967	36.6211	68.9349	36.6211	73.5729	36.6211	69.3646	36.6211	73.4092	36.6211	69.9744	36.6211	73.1028	36.6211	70.685	36.6211	72.6569	36.6211	71.4113	36.6211	72.0841
38.0859	69.3891	38.0859	69.4533	38.0859	69.4476	38.0859	69.6685	38.0859	69.583	38.0859	70.0351	38.0859	69.7454	38.0859	70.5268	38.0859	69.8907	38.0859	71.1006	38.0859	69.9854	38.0859	71.71	38.0859	70.008	38.0859	72.3139	38.0859	69.9495	38.0859	72.8793	38.0859	69.8148	38.0859	73.3813	38.0859	69.6264	38.0859	73.8009	38.0859	69.4293	38.0859	74.1229	38.0859	69.2923	38.0859	74.3345	38.0859	69.2992	38.0859	74.4246	38.0859	69.52	38.0859	74.3833	38.0859	69.9746	38.0859	74.2032	38.0859	70.6179	38.0859	73.8801	38.0859	71.3637	38.0859	73.4157	38.0859	72.1217	38.0859	72.8211
39.5508	70.2142	39.5508	70.3858	39.5508	70.1463	39.5508	70.6774	39.5508	70.1507	39.5508	71.085	39.5508	70.1894	39.5508	71.5862	39.5508	70.226	39.5508	72.1478	39.5508	70.2317	39.5508	72.7339	39.5508	70.1881	39.5508	73.3116	39.5508	70.0904	39.5508	73.8533	39.5508	69.95	39.5508	74.3368	39.5508	69.7989	39.5508	74.7444	39.5508	69.692	39.5508	75.0612	39.5508	69.7015	39.5508	75.2744	39.5508	69.8966	39.5508	75.3727	39.5508	70.3111	39.5508	75.3463	39.5508	70.9231	39.5508	75.1871	39.5508	71.6644	39.5508	74.8903	39.5508	72.4514	39.5508	74.4556	39.5508	73.2108	39.5508	73.8898
41.0156	73.5109	41.0156	73.6913	41.0156	73.3906	41.0156	73.9382	41.0156	73.3171	41.0156	74.2492	41.0156	73.2734	41.0156	74.6143	41.0156	73.2421	41.0156	75.0174	41.0156	73.2092	41.0156	75.4392	41.0156	73.1664	41.0156	75.8599	41.0156	73.1143	41.0156	76.2607	41.0156	73.063	41.0156	76.6245	41.0156	73.0341	41.0156	76.936	41.0156	73.0575	41.0156	77.1815	41.0156	73.1666	41.0156	77.3491	41.0156	73.3882	41.0156	77.4282	41.0156	73.7316	41.0156	77.4103	41.0156	74.1832	41.0156	77.2894	41.0156	74.7098	41.0156	77.0631	41.0156	75.2679	41.0156	76.7342	41.0156	75.8142	41.0156	76.312
42.4805	74.5667	42.4805	74.5697	42.4805	74.6046	42.4805	74.6298	42.4805	74.6647	42.4805	74.7576	42.4805	74.7285	42.4805	74.9557	42.4805	74.7804	42.4805	75.2176	42.4805	74.8089	42.4805	75.5293	42.4805	74.8079	42.4805	75.8713	42.4805	74.7776	42.4805	76.2218	42.4805	74.7259	42.4805	76.559	42.4805	74.6684	42.4805	76.8625	42.4805	74.6283	42.4805	77.1144	42.4805	74.6328	42.4805	77.2994	42.4805	74.7084	42.4805	77.4053	42.4805	74.8726	42.4805	77.4233	42.4805	75.1278	42.4805	77.3488	42.4805	75.4595	42.4805	77.1822	42.4805	75.8396	42.4805	76.9302	42.4805	76.2334	42.4805	76.6067
43.9453	74.7032	43.9453	74.6912	43.9453	74.7693	43.9453	74.7524	43.9453	74.8666	43.9453	74.8978	43.9453	74.9721	43.9453	75.1271	43.9453	75.0658	43.9453	75.4292	43.9453	75.1326	43.9453	75.784	43.9453	75.1631	43.9453	76.1668	43.9453	75.1547	43.9453	76.5518	43.9453	75.1124	43.9453	76.9149	43.9453	75.0492	43.9453	77.2345	43.9453	74.9865	43.9453	77.4925	43.9453	74.9526	43.9453	77.6737	43.9453	74.9784	43.9453	77.7665	43.9453	75.0904	43.9453	77.7626	43.9453	75.3023	43.9453	77.6583	43.9453	75.6089	43.9453	77.4557	43.9453	75.9861	43.9453	77.1642	43.9453	76.3973	43.9453	76.8021
45.4102	74.995	45.4102	75.1099	45.4102	74.9453	45.4102	75.3017	45.4102	74.9414	45.4102	75.5723	45.4102	74.9611	45.4102	75.9128	45.4102	74.9826	45.4102	76.3057	45.4102	74.9883	45.4102	76.7288	45.4102	74.9663	45.4102	77.1582	45.4102	74.9128	45.4102	77.5709	45.4102	74.8336	45.4102	77.9462	45.4102	74.7455	45.4102	78.266	45.4102	74.6774	45.4102	78.5147	45.4102	74.6679	45.4102	78.6784	45.4102	74.7579	45.4102	78.7456	45.4102	74.9784	45.4102	78.7072	45.4102	75.3368	45.4102	78.5571	45.4102	75.8113	45.4102	78.2938	45.4102	76.3577	45.4102	77.9225	45.4102	76.9227	45.4102	77.4569
46.875	77.0176	46.875	77.185	46.875	76.9065	46.875	77.4129	46.875	76.8423	46.875	77.6997	46.875	76.813	46.875	78.0372	46.875	76.8064	46.875	78.4127	46.875	76.8127	46.875	78.8104	46.875	76.8271	46.875	79.2134	46.875	76.8516	46.875	79.605	46.875	76.8952	46.875	79.9695	46.875	76.974	46.875	80.2924	46.875	77.1079	46.875	80.5609	46.875	77.3151	46.875	80.7633	46.875	77.6057	46.875	80.8896	46.875	77.9764	46.875	80.9315	46.875	78.4102	46.875	80.8831	46.875	78.8793	46.875	80.7415	46.875	79.3519	46.875	80.5079	46.875	79.7971	46.875	80.1889
48.3398	78.3233	48.3398	78.4405	48.3398	78.2496	48.3398	78.6045	48.3398	78.2134	48.3398	78.814	48.3398	78.2064	48.3398	79.0642	48.3398	78.2202	48.3398	79.3463	48.3398	78.2477	48.3398	79.6489	48.3398	78.2841	48.3398	79.9591	48.3398	78.3283	48.3398	80.2633	48.3398	78.3834	48.3398	80.548	48.3398	78.4563	48.3398	80.8004	48.3398	78.5569	48.3398	81.0087	48.3398	78.6956	48.3398	81.1623	48.3398	78.8804	48.3398	81.2525	48.3398	79.114	48.3398	81.2729	48.3398	79.3922	48.3398	81.2201	48.3398	79.7032	48.3398	81.0943	48.3398	80.0299	48.3398	80.9003	48.3398	80.3517	48.3398	80.648
51.2695	79.8183	51.2695	79.9345	51.2695	79.7365	51.2695	80.0855	51.2695	79.6865	51.2695	80.2696	51.2695	79.6644	51.2695	80.4823	51.2695	79.6656	51.2695	80.7173	51.2695	79.6859	51.2695	80.9661	51.2695	79.722	51.2695	81.2191	51.2695	79.7724	51.2695	81.4658	51.2695	79.8376	51.2695	81.6954	51.2695	79.92	51.2695	81.8973	51.2695	80.0235	51.2695	82.0616	51.2695	80.1525	51.2695	82.1792	51.2695	80.3105	51.2695	82.2429	51.2695	80.4987	51.2695	82.2477	51.2695	80.7154	51.2695	82.1919	51.2695	80.9549	51.2695	82.0772	51.2695	81.2077	51.2695	81.9099	51.2695	81.4611	51.2695	81.7001
52.7344	80.6756	52.7344	80.7788	52.7344	80.594	52.7344	80.9047	52.7344	80.5314	52.7344	81.0531	52.7344	80.4848	52.7344	81.2219	52.7344	80.4513	52.7344	81.407	52.7344	80.4282	52.7344	81.6024	52.7344	80.4141	52.7344	81.8006	52.7344	80.4088	52.7344	81.9927	52.7344	80.4139	52.7344	82.169	52.7344	80.4325	52.7344	82.3194	52.7344	80.4695	52.7344	82.4343	52.7344	80.5304	52.7344	82.5047	52.7344	80.6212	52.7344	82.5236	52.7344	80.7468	52.7344	82.4864	52.7344	80.9094	52.7344	82.392	52.7344	81.1076	52.7344	82.2436	52.7344	81.3345	52.7344	82.0494	52.7344	81.578	52.7344	81.8221
54.1992	81.4126	54.1992	81.5065	54.1992	81.3349	54.1992	81.6186	54.1992	81.2705	54.1992	81.7497	54.1992	81.2164	54.1992	81.8988	54.1992	81.1697	54.1992	82.0633	54.1992	81.1283	54.1992	82.2382	54.1992	81.0911	54.1992	82.417	54.1992	81.0588	54.1992	82.5915	54.1992	81.0338	54.1992	82.7522	54.1992	81.0208	54.1992	82.8892	54.1992	81.0262	54.1992	82.9928	54.1992	81.0579	54.1992	83.0536	54.1992	81.1244	54.1992	83.0641	54.1992	81.2325	54.1992	83.0192	54.1992	81.3857	54.1992	82.9171	54.1992	81.5823	54.1992	82.7605	54.1992	81.8137	54.1992	82.5572	54.1992	82.0657	54.1992	82.3199
55.6641	82.1912	55.6641	82.2619	55.6641	82.1408	55.6641	82.3557	55.6641	82.1071	55.6641	82.4738	55.6641	82.0866	55.6641	82.6158	55.6641	82.0758	55.6641	82.7793	55.6641	82.0723	55.6641	82.9596	55.6641	82.0748	55.6641	83.1501	55.6641	82.0839	55.6641	83.3427	55.6641	82.1018	55.6641	83.5281	55.6641	82.1329	55.6641	83.6963	55.6641	82.1831	55.6641	83.8375	55.6641	82.2589	55.6641	83.9425	55.6641	82.366	55.6641	84.0033	55.6641	82.5078	55.6641	84.014	55.6641	82.6835	55.6641	83.9713	55.6641	82.8875	55.6641	83.8754	55.6641	83.109	55.6641	83.7309	55.6641	83.3339	55.6641	83.5462
58.5938	82.7083	58.5938	82.798	58.5938	82.642	58.5938	82.9102	58.5938	82.5996	58.5938	83.0426	58.5938	82.5805	58.5938	83.1922	58.5938	82.5837	58.5938	83.3549	58.5938	82.6075	58.5938	83.5259	58.5938	82.6502	58.5938	83.6992	58.5938	82.71	58.5938	83.8685	58.5938	82.7853	58.5938	84.0269	58.5938	82.8748	58.5938	84.1673	58.5938	82.9775	58.5938	84.2829	58.5938	83.0929	58.5938	84.3677	58.5938	83.2199	58.5938	84.4166	58.5938	83.3576	58.5938	84.4269	58.5938	83.5042	58.5938	84.3977	58.5938	83.6571	58.5938	84.3312	58.5938	83.8124	58.5938	84.2322	58.5938	83.9648	58.5938	84.1074
60.0586	83.613	60.0586	83.7098	60.0586	83.5332	60.0586	83.8221	60.0586	83.4719	60.0586	83.9477	60.0586	83.4298	60.0586	84.0841	60.0586	83.4074	60.0586	84.2279	60.0586	83.4048	60.0586	84.3756	60.0586	83.4217	60.0586	84.5227	60.0586	83.4575	60.0586	84.6643	60.0586	83.5112	60.0586	84.7948	60.0586	83.5821	60.0586	84.9084	60.0586	83.6689	60.0586	84.9993	60.0586	83.7705	60.0586	85.0622	60.0586	83.8859	60.0586	85.0926	60.0586	84.0136	60.0586	85.0877	60.0586	84.1518	60.0586	85.047	60.0586	84.298	60.0586	84.9722	60.0586	84.4487	60.0586	84.868	60.0586	84.5985	60.0586	84.7409
62.9883	84.7379	62.9883	84.8019	62.9883	84.6846	62.9883	84.8753	62.9883	84.6433	62.9883	84.9568	62.9883	84.6152	62.9883	85.0451	62.9883	84.6016	62.9883	85.1386	62.9883	84.6033	62.9883	85.2355	62.9883	84.6207	62.9883	85.3335	62.9883	84.6538	62.9883	85.4297	62.9883	84.7016	62.9883	85.5208	62.9883	84.7629	62.9883	85.6027	62.9883	84.8357	62.9883	85.6715	62.9883	84.9181	62.9883	85.7232	62.9883	85.0077	62.9883	85.7544	62.9883	85.1027	62.9883	85.7628	62.9883	85.2008	62.9883	85.7477	62.9883	85.3001	62.9883	85.71	62.9883	85.3982	62.9883	85.6522	62.9883	85.492	62.9883	85.5781
64.4531	84.9027	64.4531	84.9549	64.4531	84.8595	64.4531	85.0151	64.4531	84.8269	64.4531	85.0818	64.4531	84.8061	64.4531	85.1541	64.4531	84.7984	64.4531	85.2306	64.4531	84.8048	64.4531	85.3099	64.4531	84.8254	64.4531	85.3901	64.4531	84.8599	64.4531	85.4691	64.4531	84.9072	64.4531	85.544	64.4531	84.9653	64.4531	85.6117	64.4531	85.0319	64.4531	85.6689	64.4531	85.1044	64.4531	85.7124	64.4531	85.1804	64.4531	85.7394	64.4531	85.2578	64.4531	85.7482	64.4531	85.3348	64.4531	85.7386	64.4531	85.4104	64.4531	85.7115	64.4531	85.4834	64.4531	85.6694	64.4531	85.5524	64.4531	85.6153
67.3828	85.186	67.3828	85.2372	67.3828	85.1408	67.3828	85.2928	67.3828	85.1035	67.3828	85.3515	67.3828	85.0758	67.3828	85.412	67.3828	85.0594	67.3828	85.4732	67.3828	85.0556	67.3828	85.5341	67.3828	85.0651	67.3828	85.5934	67.3828	85.0878	67.3828	85.6497	67.3828	85.1226	67.3828	85.7012	67.3828	85.1679	67.3828	85.7456	67.3828	85.2213	67.3828	85.7809	67.3828	85.28	67.3828	85.8049	67.3828	85.3416	67.3828	85.8159	67.3828	85.4037	67.3828	85.8132	67.3828	85.4649	67.3828	85.797	67.3828	85.5241	67.3828	85.7688	67.3828	85.5809	67.3828	85.7308	67.3828	85.635	67.3828	85.6854
68.8477	85.4595	68.8477	85.5133	68.8477	85.41	68.8477	85.5694	68.8477	85.3669	68.8477	85.6263	68.8477	85.3325	68.8477	85.6828	68.8477	85.3091	68.8477	85.7378	68.8477	85.2984	68.8477	85.7905	68.8477	85.3015	68.8477	85.8403	68.8477	85.3187	68.8477	85.8862	68.8477	85.3494	68.8477	85.927	68.8477	85.3917	68.8477	85.9614	68.8477	85.4432	68.8477	85.9879	68.8477	85.501	68.8477	86.0049	68.8477	85.562	68.8477	86.0113	68.8477	85.6235	68.8477	86.0065	68.8477	85.6836	68.8477	85.9906	68.8477	85.7408	68.8477	85.9649	68.8477	85.7945	68.8477	85.9307	68.8477	85.8444	68.8477	85.8901
