"SPL Vertical"																																																																							
"On-Axis"		"10°"		"-10°"		"20°"		"-20°"		"30°"		"-30°"		"40°"		"-40°"		"50°"		"-50°"		"60°"		"-60°"		"70°"		"-70°"		"80°"		"-80°"		"90°"		"-90°"		"100°"		"-100°"		"110°"		"-110°"		"120°"		"-120°"		"130°"		"-130°"		"140°"		"-140°"		"150°"		"-150°"		"160°"		"-160°"		"170°"		"-170°"		"180°"	
"Frequency [Hz]"	"Sound Pessure Level [dB]  / [2.83V 1m] "	"Frequency [Hz]"	"Sound Pessure Level [dB]  / [2.83V 1m] "	"Frequency [Hz]"	"Sound Pessure Level [dB]  / [2.83V 1m] "	"Frequency [Hz]"	"Sound Pessure Level [dB]  / [2.83V 1m] "	"Frequency [Hz]"	"Sound Pessure Level [dB]  / [2.83V 1m] "	"Frequency [Hz]"	"Sound Pessure Level [dB]  / [2.83V 1m] "	"Frequency [Hz]"	"Sound Pessure Level [dB]  / [2.83V 1m] "	"Frequency [Hz]"	"Sound Pessure Level [dB]  / [2.83V 1m] "	"Frequency [Hz]"	"Sound Pessure Level [dB]  / [2.83V 1m] "	"Frequency [Hz]"	"Sound Pessure Level [dB]  / [2.83V 1m] "	"Frequency [Hz]"	"Sound Pessure Level [dB]  / [2.83V 1m] "	"Frequency [Hz]"	"Sound Pessure Level [dB]  / [2.83V 1m] "	"Frequency [Hz]"	"Sound Pessure Level [dB]  / [2.83V 1m] "	"Frequency [Hz]"	"Sound Pessure Level [dB]  / [2.83V 1m] "	"Frequency [Hz]"	"Sound Pessure Level [dB]  / [2.83V 1m] "	"Frequency [Hz]"	"Sound Pessure Level [dB]  / [2.83V 1m] "	"Frequency [Hz]"	"Sound Pessure Level [dB]  / [2.83V 1m] "	"Frequency [Hz]"	"Sound Pessure Level [dB]  / [2.83V 1m] "	"Frequency [Hz]"	"Sound Pessure Level [dB]  / [2.83V 1m] "	"Frequency [Hz]"	"Sound Pessure Level [dB]  / [2.83V 1m] "	"Frequency [Hz]"	"Sound Pessure Level [dB]  / [2.83V 1m] "	"Frequency [Hz]"	"Sound Pessure Level [dB]  / [2.83V 1m] "	"Frequency [Hz]"	"Sound Pessure Level [dB]  / [2.83V 1m] "	"Frequency [Hz]"	"Sound Pessure Level [dB]  / [2.83V 1m] "	"Frequency [Hz]"	"Sound Pessure Level [dB]  / [2.83V 1m] "	"Frequency [Hz]"	"Sound Pessure Level [dB]  / [2.83V 1m] "	"Frequency [Hz]"	"Sound Pessure Level [dB]  / [2.83V 1m] "	"Frequency [Hz]"	"Sound Pessure Level [dB]  / [2.83V 1m] "	"Frequency [Hz]"	"Sound Pessure Level [dB]  / [2.83V 1m] "	"Frequency [Hz]"	"Sound Pessure Level [dB]  / [2.83V 1m] "	"Frequency [Hz]"	"Sound Pessure Level [dB]  / [2.83V 1m] "	"Frequency [Hz]"	"Sound Pessure Level [dB]  / [2.83V 1m] "	"Frequency [Hz]"	"Sound Pessure Level [dB]  / [2.83V 1m] "	"Frequency [Hz]"	"Sound Pessure Level [dB]  / [2.83V 1m] "	"Frequency [Hz]"	"Sound Pessure Level [dB]  / [2.83V 1m] "	"Frequency [Hz]"	"Sound Pessure Level [dB]  / [2.83V 1m] "
20.5078	53.3131	20.5078	52.9316	20.5078	53.4995	20.5078	52.3463	20.5078	53.487	20.5078	51.5336	20.5078	53.2599	20.5078	50.4495	20.5078	52.7877	20.5078	49.0177	20.5078	52.0187	20.5078	47.1047	20.5078	50.8675	20.5078	44.4764	20.5078	49.1856	20.5078	40.8081	20.5078	46.6942	20.5078	37.2751	20.5078	42.8419	20.5078	39.7449	20.5078	37.666	20.5078	44.0032	20.5078	40.1564	20.5078	47.1822	20.5078	45.307	20.5078	49.506	20.5078	48.6986	20.5078	51.2337	20.5078	50.9614	20.5078	52.5074	20.5078	52.485	20.5078	53.3997	20.5078	53.4624	20.5078	53.9436	20.5078	53.9968	20.5078	54.1466
21.9727	54.335	21.9727	53.9398	21.9727	54.5212	21.9727	53.3247	21.9727	54.495	21.9727	52.4614	21.9727	54.2386	21.9727	51.2964	21.9727	53.717	21.9727	49.7349	21.9727	52.8694	21.9727	47.6052	21.9727	51.5918	21.9727	44.5919	21.9727	49.6945	21.9727	40.3266	21.9727	46.7922	21.9727	38.0505	21.9727	42.037	21.9727	42.4846	21.9727	37.1602	21.9727	46.6165	21.9727	43.1158	21.9727	49.5645	21.9727	47.9887	21.9727	51.7327	21.9727	51.0871	21.9727	53.3596	21.9727	53.1763	21.9727	54.5681	21.9727	54.5955	21.9727	55.4203	21.9727	55.5098	21.9727	55.9438	21.9727	56.0088	21.9727	56.1438
23.4375	54.251	23.4375	53.7962	23.4375	54.4539	23.4375	53.0692	23.4375	54.4036	23.4375	52.0205	23.4375	54.0774	23.4375	50.5521	23.4375	53.4263	23.4375	48.4674	23.4375	52.3584	23.4375	45.3153	23.4375	50.6987	23.4375	39.6915	23.4375	48.0687	23.4375	26.5526	23.4375	43.3893	23.4375	40.4599	23.4375	30.0874	23.4375	46.4409	23.4375	40.3979	23.4375	50.0245	23.4375	47.5983	23.4375	52.5462	23.4375	51.4901	23.4375	54.4371	23.4375	54.0527	23.4375	55.8826	23.4375	55.8379	23.4375	56.9727	23.4375	57.075	23.4375	57.7511	23.4375	57.8798	23.4375	58.2359	23.4375	58.3177	23.4375	58.4286
24.9023	54.9907	24.9023	54.4508	24.9023	55.265	24.9023	53.6257	24.9023	55.2741	24.9023	52.4779	24.9023	54.9993	24.9023	50.9608	24.9023	54.3991	24.9023	49.0877	24.9023	53.4038	24.9023	47.2493	24.9023	51.9129	24.9023	46.8199	24.9023	49.8536	24.9023	48.6276	24.9023	47.6593	24.9023	51.2545	24.9023	47.5684	24.9023	53.6938	24.9023	50.3606	24.9023	55.7542	24.9023	53.4939	24.9023	57.4601	24.9023	56.0572	24.9023	58.8587	24.9023	58.0442	24.9023	59.9847	24.9023	59.5511	24.9023	60.8574	24.9023	60.6541	24.9023	61.4844	24.9023	61.4055	24.9023	61.864	24.9023	61.8412	24.9023	61.9876
26.3672	56.4916	26.3672	56.0067	26.3672	56.7409	26.3672	55.2798	26.3672	56.751	26.3672	54.3002	26.3672	56.5056	26.3672	53.0746	26.3672	55.9748	26.3672	51.6985	26.3672	55.1164	26.3672	50.5383	26.3672	53.8938	26.3672	50.3475	26.3672	52.3652	26.3672	51.5258	26.3672	51.0145	26.3672	53.4662	26.3672	51.0856	26.3672	55.4889	26.3672	52.9775	26.3672	57.3181	26.3672	55.4406	26.3672	58.8917	26.3672	57.6687	26.3672	60.2108	26.3672	59.4855	26.3672	61.2871	26.3672	60.8997	26.3672	62.1286	26.3672	61.9495	26.3672	62.7366	26.3672	62.67	26.3672	63.1065	26.3672	63.0889	26.3672	63.2285
27.832	57.7166	27.832	57.2655	27.832	57.9504	27.832	56.5988	27.832	57.9604	27.832	55.7229	27.832	57.7327	27.832	54.6758	27.832	57.2454	27.832	53.5933	27.832	56.4757	27.832	52.8205	27.832	55.4283	27.832	52.8725	27.832	54.2326	27.832	53.9283	27.832	53.373	27.832	55.5781	27.832	53.6859	27.832	57.3495	27.832	55.2997	27.832	59.0038	27.832	57.3997	27.832	60.4605	27.832	59.3811	27.832	61.701	27.832	61.0481	27.832	62.7237	27.832	62.3714	27.832	63.5287	27.832	63.3657	27.832	64.113	27.832	64.053	27.832	64.4696	27.832	64.4542	27.832	64.5878
29.2969	59.06	29.2969	58.6688	29.2969	59.2648	29.2969	58.1042	29.2969	59.2731	29.2969	57.3935	29.2969	59.0737	29.2969	56.6037	29.2969	58.6564	29.2969	55.8856	29.2969	58.0241	29.2969	55.5062	29.2969	57.2267	29.2969	55.75	29.2969	56.4427	29.2969	56.6659	29.2969	56.0756	29.2969	58.0118	29.2969	56.5857	29.2969	59.4957	29.2969	57.949	29.2969	60.9329	29.2969	59.6807	29.2969	62.2365	29.2969	61.3745	29.2969	63.3708	29.2969	62.8486	29.2969	64.3205	29.2969	64.0463	29.2969	65.0766	29.2969	64.9595	29.2969	65.6302	29.2969	65.5957	29.2969	65.9713	29.2969	65.9673	29.2969	66.088
30.7617	60.7035	30.7617	60.3553	30.7617	60.896	30.7617	59.8678	30.7617	60.9218	30.7617	59.2722	30.7617	60.7727	30.7617	58.632	30.7617	60.4455	30.7617	58.0686	30.7617	59.9526	30.7617	57.7718	30.7617	59.348	30.7617	57.9373	30.7617	58.7757	30.7617	58.6261	30.7617	58.5119	30.7617	59.7066	30.7617	58.8632	30.7617	60.9693	30.7617	59.877	30.7617	62.2474	30.7617	61.2759	30.7617	63.4427	30.7617	62.7375	30.7617	64.5042	30.7617	64.0661	30.7617	65.4052	30.7617	65.1751	30.7617	66.1291	30.7617	66.0345	30.7617	66.6625	30.7617	66.6388	30.7617	66.9928	30.7617	66.9931	30.7617	67.1072
32.2266	61.6688	32.2266	61.366	32.2266	61.8346	32.2266	60.9489	32.2266	61.8498	32.2266	60.4574	32.2266	61.7065	32.2266	59.963	32.2266	61.4057	32.2266	59.583	32.2266	60.9687	32.2266	59.4723	32.2266	60.4631	32.2266	59.7609	32.2266	60.0419	32.2266	60.4649	32.2266	59.9554	32.2266	61.4734	32.2266	60.432	32.2266	62.6285	32.2266	61.4618	32.2266	63.8003	32.2266	62.7992	32.2266	64.9055	32.2266	64.1793	32.2266	65.8958	32.2266	65.4365	32.2266	66.7426	32.2266	66.4916	32.2266	67.4264	32.2266	67.3138	32.2266	67.9317	32.2266	67.8949	32.2266	68.2443	32.2266	68.2378	32.2266	68.3506
33.6914	63.2164	33.6914	62.9797	33.6914	63.3501	33.6914	62.6637	33.6914	63.3673	33.6914	62.3081	33.6914	63.2641	33.6914	61.9759	33.6914	63.0489	33.6914	61.7568	33.6914	62.7526	33.6914	61.7542	33.6914	62.4451	33.6914	62.0476	33.6914	62.2519	33.6914	62.6474	33.6914	62.3395	33.6914	63.488	33.6914	62.8327	33.6914	64.4659	33.6914	63.7132	33.6914	65.4828	33.6914	64.8283	33.6914	66.4653	33.6914	65.9973	33.6914	67.3637	33.6914	67.0866	33.6914	68.1446	33.6914	68.0184	33.6914	68.7838	33.6914	68.7535	33.6914	69.2625	33.6914	69.2756	33.6914	69.5641	33.6914	69.5811	33.6914	69.6743
35.1563	64.736	35.1563	64.5338	35.1563	64.8567	35.1563	64.2723	35.1563	64.8839	35.1563	63.9872	35.1563	64.8155	35.1563	63.7317	35.1563	64.662	35.1563	63.5772	35.1563	64.4542	35.1563	63.602	35.1563	64.2537	35.1563	63.8661	35.1563	64.1599	35.1563	64.3822	35.1563	64.2943	35.1563	65.1082	35.1563	64.7448	35.1563	65.9676	35.1563	65.5029	35.1563	66.8799	35.1563	66.4637	35.1563	67.7782	35.1563	67.4889	35.1563	68.6125	35.1563	68.4625	35.1563	69.3469	35.1563	69.3081	35.1563	69.9546	35.1563	69.9818	35.1563	70.4141	35.1563	70.462	35.1563	70.7077	35.1563	70.7412	35.1563	70.8206
36.6211	66.1888	36.6211	66.015	36.6211	66.3001	36.6211	65.7995	36.6211	66.3377	36.6211	65.5749	36.6211	66.3002	36.6211	65.3868	36.6211	66.1985	36.6211	65.2928	36.6211	66.0609	36.6211	65.3527	36.6211	65.94	36.6211	65.6106	36.6211	65.9151	36.6211	66.0766	36.6211	66.0777	36.6211	66.7206	36.6211	66.4932	36.6211	67.4854	36.6211	67.1593	36.6211	68.3061	36.6211	68.0015	36.6211	69.1244	36.6211	68.9117	36.6211	69.8933	36.6211	69.7902	36.6211	70.5768	36.6211	70.5638	36.6211	71.1467	36.6211	71.1867	36.6211	71.5803	36.6211	71.6338	36.6211	71.8589	36.6211	71.8943	36.6211	71.9673
38.0859	67.4191	38.0859	67.2734	38.0859	67.5174	38.0859	67.1003	38.0859	67.5575	38.0859	66.9296	38.0859	67.5384	38.0859	66.8015	38.0859	67.4708	38.0859	66.7635	38.0859	67.3816	38.0859	66.8624	38.0859	67.3178	38.0859	67.1309	38.0859	67.3467	38.0859	67.5751	38.0859	67.5419	38.0859	68.1709	38.0859	67.9535	38.0859	68.8729	38.0859	68.5778	38.0859	69.6276	38.0859	69.3546	38.0859	70.3844	38.0859	70.1939	38.0859	71.1005	38.0859	71.0084	38.0859	71.7411	38.0859	71.7309	38.0859	72.278	38.0859	72.3164	38.0859	72.6881	38.0859	72.7387	38.0859	72.9522	38.0859	72.9856	38.0859	73.055
39.5508	68.8542	39.5508	68.7362	39.5508	68.9404	39.5508	68.6032	39.5508	68.9856	39.5508	68.4804	39.5508	68.99	39.5508	68.4005	39.5508	68.9637	39.5508	68.4005	39.5508	68.9305	39.5508	68.5161	39.5508	68.9289	39.5508	68.7717	39.5508	69.0106	39.5508	69.1729	39.5508	69.229	39.5508	69.7029	39.5508	69.6196	39.5508	70.3278	39.5508	70.1795	39.5508	71.005	39.5508	70.865	39.5508	71.6913	39.5508	71.607	39.5508	72.3477	39.5508	72.3334	39.5508	72.9407	39.5508	72.9839	39.5508	73.4422	39.5508	73.515	39.5508	73.8285	39.5508	73.8993	39.5508	74.0801	39.5508	74.1228	39.5508	74.1817
41.0156	70.3278	41.0156	70.2292	41.0156	70.4058	41.0156	70.1244	41.0156	70.4557	41.0156	70.0338	41.0156	70.4771	41.0156	69.983	41.0156	70.4787	41.0156	70.0008	41.0156	70.4795	41.0156	70.114	41.0156	70.51	41.0156	70.342	41.0156	70.6101	41.0156	70.6908	41.0156	70.8209	41.0156	71.1499	41.0156	71.1703	41.0156	71.6951	41.0156	71.6591	41.0156	72.293	41.0156	72.2562	41.0156	72.9073	41.0156	72.9076	41.0156	73.5026	41.0156	73.5524	41.0156	74.047	41.0156	74.1358	41.0156	74.5124	41.0156	74.6157	41.0156	74.8745	41.0156	74.9639	41.0156	75.1134	41.0156	75.1648	41.0156	75.2136
42.4805	71.468	42.4805	71.3805	42.4805	71.5403	42.4805	71.2905	42.4805	71.5907	42.4805	71.2163	42.4805	71.6189	42.4805	71.1802	42.4805	71.6328	42.4805	71.2068	42.4805	71.6492	42.4805	71.3195	42.4805	71.6951	42.4805	71.5352	42.4805	71.8049	42.4805	71.8597	42.4805	72.0137	42.4805	72.2851	42.4805	72.3457	42.4805	72.7912	42.4805	72.8022	42.4805	73.3491	42.4805	73.357	42.4805	73.9259	42.4805	73.9634	42.4805	74.4886	42.4805	74.5662	42.4805	75.0062	42.4805	75.1143	42.4805	75.4511	42.4805	75.5668	42.4805	75.7991	42.4805	75.8956	42.4805	76.0301	42.4805	76.0848	42.4805	76.1287
43.9453	72.7133	43.9453	72.6415	43.9453	72.7787	43.9453	72.5738	43.9453	72.832	43.9453	72.5251	43.9453	72.8734	43.9453	72.5136	43.9453	72.9098	43.9453	72.5586	43.9453	72.9554	43.9453	72.6786	43.9453	73.0322	43.9453	72.8865	43.9453	73.167	43.9453	73.1872	43.9453	73.3864	43.9453	73.5752	43.9453	73.708	43.9453	74.0347	43.9453	74.1317	43.9453	74.5423	43.9453	74.6363	43.9453	75.07	43.9453	75.1838	43.9453	75.5886	43.9453	75.7279	43.9453	76.0694	43.9453	76.2237	43.9453	76.486	43.9453	76.6337	43.9453	76.8147	43.9453	76.9312	43.9453	77.0358	43.9453	77.1	43.9453	77.134
45.4102	74.3375	45.4102	74.2783	45.4102	74.3975	45.4102	74.229	45.4102	74.4535	45.4102	74.2017	45.4102	74.505	45.4102	74.2114	45.4102	74.557	45.4102	74.2736	45.4102	74.6201	45.4102	74.4028	45.4102	74.7107	45.4102	74.6096	45.4102	74.8496	45.4102	74.8976	45.4102	75.058	45.4102	75.2623	45.4102	75.3512	45.4102	75.6907	45.4102	75.7319	45.4102	76.1628	45.4102	76.1863	45.4102	76.6538	45.4102	76.6848	45.4102	77.1371	45.4102	77.1883	45.4102	77.5856	45.4102	77.6555	45.4102	77.9735	45.4102	78.0496	45.4102	78.2776	45.4102	78.3423	45.4102	78.4781	45.4102	78.5152	45.4102	78.5601
46.875	75.3602	46.875	75.305	46.875	75.4168	46.875	75.2587	46.875	75.4708	46.875	75.2318	46.875	75.5219	46.875	75.237	46.875	75.5746	46.875	75.2881	46.875	75.6379	46.875	75.3981	46.875	75.7261	46.875	75.5772	46.875	75.8568	46.875	75.8302	46.875	76.0484	46.875	76.1548	46.875	76.3146	46.875	76.5409	46.875	76.6587	46.875	76.9718	46.875	77.0697	46.875	77.4252	46.875	77.5226	46.875	77.8763	46.875	77.9826	46.875	78.2989	46.875	78.4116	46.875	78.6677	46.875	78.7746	46.875	78.9594	46.875	79.0439	46.875	79.1544	46.875	79.2012	46.875	79.2378
48.3398	76.0757	48.3398	76.0284	48.3398	76.1329	48.3398	75.9978	48.3398	76.1963	48.3398	75.9928	48.3398	76.2656	48.3398	76.0241	48.3398	76.3443	48.3398	76.1026	48.3398	76.44	48.3398	76.2385	48.3398	76.564	48.3398	76.4386	48.3398	76.73	48.3398	76.7054	48.3398	76.9517	48.3398	77.0354	48.3398	77.2381	48.3398	77.4187	48.3398	77.5895	48.3398	77.84	48.3398	77.9949	48.3398	78.2796	48.3398	78.4317	48.3398	78.7148	48.3398	78.8692	48.3398	79.1221	48.3398	79.2737	48.3398	79.478	48.3398	79.6138	48.3398	79.7608	48.3398	79.8643	48.3398	79.9519	48.3398	80.0079	48.3398	80.0369
51.2695	77.6729	51.2695	77.6329	51.2695	77.728	51.2695	77.6124	51.2695	77.7951	51.2695	77.6177	51.2695	77.8736	51.2695	77.6559	51.2695	77.9654	51.2695	77.7343	51.2695	78.0749	51.2695	77.8595	51.2695	78.2088	51.2695	78.0363	51.2695	78.3756	51.2695	78.2665	51.2695	78.5834	51.2695	78.5477	51.2695	78.8378	51.2695	78.8734	51.2695	79.1389	51.2695	79.2323	51.2695	79.4792	51.2695	79.6093	51.2695	79.8427	51.2695	79.986	51.2695	80.2062	51.2695	80.3421	51.2695	80.5431	51.2695	80.6569	51.2695	80.8267	51.2695	80.9103	51.2695	81.0347	51.2695	81.085	51.2695	81.1509	51.2695	81.1677
52.7344	78.2979	52.7344	78.262	52.7344	78.351	52.7344	78.247	52.7344	78.4187	52.7344	78.2581	52.7344	78.5004	52.7344	78.3009	52.7344	78.5971	52.7344	78.3811	52.7344	78.7121	52.7344	78.5039	52.7344	78.8503	52.7344	78.673	52.7344	79.018	52.7344	78.8897	52.7344	79.2213	52.7344	79.1522	52.7344	79.4644	52.7344	79.4546	52.7344	79.7469	52.7344	79.7875	52.7344	80.0624	52.7344	80.1375	52.7344	80.397	52.7344	80.4883	52.7344	80.7305	52.7344	80.8213	52.7344	81.0393	52.7344	81.1171	52.7344	81.2989	52.7344	81.3566	52.7344	81.4884	52.7344	81.5233	52.7344	81.5928	52.7344	81.6044
54.1992	78.8662	54.1992	78.8335	54.1992	78.9178	54.1992	78.8229	54.1992	78.9861	54.1992	78.8384	54.1992	79.0703	54.1992	78.8845	54.1992	79.171	54.1992	78.9657	54.1992	79.2905	54.1992	79.086	54.1992	79.4322	54.1992	79.2482	54.1992	79.6007	54.1992	79.4534	54.1992	79.8005	54.1992	79.6996	54.1992	80.0343	54.1992	79.9822	54.1992	80.3015	54.1992	80.2927	54.1992	80.5961	54.1992	80.6195	54.1992	80.906	54.1992	80.9479	54.1992	81.2136	54.1992	81.2607	54.1992	81.4974	54.1992	81.5399	54.1992	81.7354	54.1992	81.7675	54.1992	81.9081	54.1992	81.9275	54.1992	82.0013	54.1992	82.0077
55.6641	79.3675	55.6641	79.3378	55.6641	79.4176	55.6641	79.3311	55.6641	79.4862	55.6641	79.3504	55.6641	79.5724	55.6641	79.3992	55.6641	79.6764	55.6641	79.4808	55.6641	79.7994	55.6641	79.5983	55.6641	79.9437	55.6641	79.7537	55.6641	80.1123	55.6641	79.9475	55.6641	80.3082	55.6641	80.1782	55.6641	80.533	55.6641	80.4417	55.6641	80.7856	55.6641	80.7308	55.6641	81.0604	55.6641	81.0352	55.6641	81.3471	55.6641	81.3419	55.6641	81.63	55.6641	81.6352	55.6641	81.89	55.6641	81.8983	55.6641	82.1072	55.6641	82.1142	55.6641	82.2636	55.6641	82.2678	55.6641	82.3459	55.6641	82.3472
58.5938	80.1802	58.5938	80.1514	58.5938	80.2312	58.5938	80.1464	58.5938	80.303	58.5938	80.167	58.5938	80.3945	58.5938	80.215	58.5938	80.5049	58.5938	80.2921	58.5938	80.6339	58.5938	80.3999	58.5938	80.7816	58.5938	80.5393	58.5938	80.9487	58.5938	80.7104	58.5938	81.1356	58.5938	80.9121	58.5938	81.3421	58.5938	81.1412	58.5938	81.5665	58.5938	81.3924	58.5938	81.8043	58.5938	81.6579	58.5938	82.0472	58.5938	81.9272	58.5938	82.2834	58.5938	82.1872	58.5938	82.4979	58.5938	82.4234	58.5938	82.6745	58.5938	82.6208	58.5938	82.7981	58.5938	82.7654	58.5938	82.8573	58.5938	82.8463
60.0586	80.5261	60.0586	80.4975	60.0586	80.5776	60.0586	80.4933	60.0586	80.651	60.0586	80.5146	60.0586	80.7448	60.0586	80.5626	60.0586	80.8579	60.0586	80.6384	60.0586	80.9893	60.0586	80.7427	60.0586	81.1383	60.0586	80.8761	60.0586	81.3044	60.0586	81.0384	60.0586	81.4872	60.0586	81.2282	60.0586	81.6858	60.0586	81.4429	60.0586	81.898	60.0586	81.678	60.0586	82.1197	60.0586	81.9264	60.0586	82.3437	60.0586	82.1788	60.0586	82.5597	60.0586	82.4235	60.0586	82.7543	60.0586	82.6469	60.0586	82.913	60.0586	82.835	60.0586	83.0222	60.0586	82.9747	60.0586	83.0715	60.0586	83.0555
62.9883	81.1887	62.9883	81.1614	62.9883	81.2399	62.9883	81.1587	62.9883	81.3141	62.9883	81.1807	62.9883	81.4098	62.9883	81.2276	62.9883	81.5254	62.9883	81.2991	62.9883	81.6588	62.9883	81.3951	62.9883	81.8078	62.9883	81.5152	62.9883	81.9703	62.9883	81.6587	62.9883	82.1443	62.9883	81.8246	62.9883	82.3274	62.9883	82.0107	62.9883	82.5169	62.9883	82.2138	62.9883	82.7089	62.9883	82.4287	62.9883	82.8979	62.9883	82.6481	62.9883	83.0758	62.9883	82.8626	62.9883	83.2328	62.9883	83.0611	62.9883	83.3574	62.9883	83.2313	62.9883	83.4388	62.9883	83.3616	62.9883	83.4686	62.9883	83.4426
64.4531	81.4194	64.4531	81.3925	64.4531	81.4707	64.4531	81.3904	64.4531	81.5455	64.4531	81.4129	64.4531	81.6425	64.4531	81.4595	64.4531	81.7596	64.4531	81.5297	64.4531	81.8943	64.4531	81.6228	64.4531	82.0439	64.4531	81.7379	64.4531	82.2054	64.4531	81.8743	64.4531	82.3761	64.4531	82.0307	64.4531	82.553	64.4531	82.2052	64.4531	82.7331	64.4531	82.395	64.4531	82.9126	64.4531	82.5956	64.4531	83.0864	64.4531	82.8007	64.4531	83.2479	64.4531	83.0019	64.4531	83.3882	64.4531	83.1891	64.4531	83.4977	64.4531	83.351	64.4531	83.5667	64.4531	83.4768	64.4531	83.5879	64.4531	83.5576
67.3828	81.808	67.3828	81.7805	67.3828	81.8609	67.3828	81.7784	67.3828	81.9387	67.3828	81.801	67.3828	82.0396	67.3828	81.8469	67.3828	82.1609	67.3828	81.9146	67.3828	82.2994	67.3828	82.0026	67.3828	82.4511	67.3828	82.1094	67.3828	82.6119	67.3828	82.2335	67.3828	82.7775	67.3828	82.3736	67.3828	82.944	67.3828	82.528	67.3828	83.1078	67.3828	82.6946	67.3828	83.2651	67.3828	82.8701	67.3828	83.4119	67.3828	83.05	67.3828	83.5431	67.3828	83.2276	67.3828	83.6527	67.3828	83.395	67.3828	83.7335	67.3828	83.5426	67.3828	83.7785	67.3828	83.6613	67.3828	83.7825	67.3828	83.7429
68.8477	81.9458	68.8477	81.9184	68.8477	81.999	68.8477	81.9166	68.8477	82.0773	68.8477	81.9392	68.8477	82.179	68.8477	81.9848	68.8477	82.3012	68.8477	82.0514	68.8477	82.4404	68.8477	82.1371	68.8477	82.592	68.8477	82.2401	68.8477	82.7515	68.8477	82.3588	68.8477	82.9141	68.8477	82.4915	68.8477	83.0756	68.8477	82.6369	68.8477	83.2319	68.8477	82.7929	68.8477	83.3794	68.8477	82.9569	68.8477	83.5142	68.8477	83.125	68.8477	83.6322	68.8477	83.2914	68.8477	83.7283	68.8477	83.449	68.8477	83.7966	68.8477	83.5894	68.8477	83.8314	68.8477	83.7039	68.8477	83.8282	68.8477	83.7852
