"SPL Horizontal"																																																																							
"On-Axis"		"10°"		"-10°"		"20°"		"-20°"		"30°"		"-30°"		"40°"		"-40°"		"50°"		"-50°"		"60°"		"-60°"		"70°"		"-70°"		"80°"		"-80°"		"90°"		"-90°"		"100°"		"-100°"		"110°"		"-110°"		"120°"		"-120°"		"130°"		"-130°"		"140°"		"-140°"		"150°"		"-150°"		"160°"		"-160°"		"170°"		"-170°"		"180°"	
"Frequency [Hz]"	"Sound Pessure Level [dB]  / [2.83V 1m] "	"Frequency [Hz]"	"Sound Pessure Level [dB]  / [2.83V 1m] "	"Frequency [Hz]"	"Sound Pessure Level [dB]  / [2.83V 1m] "	"Frequency [Hz]"	"Sound Pessure Level [dB]  / [2.83V 1m] "	"Frequency [Hz]"	"Sound Pessure Level [dB]  / [2.83V 1m] "	"Frequency [Hz]"	"Sound Pessure Level [dB]  / [2.83V 1m] "	"Frequency [Hz]"	"Sound Pessure Level [dB]  / [2.83V 1m] "	"Frequency [Hz]"	"Sound Pessure Level [dB]  / [2.83V 1m] "	"Frequency [Hz]"	"Sound Pessure Level [dB]  / [2.83V 1m] "	"Frequency [Hz]"	"Sound Pessure Level [dB]  / [2.83V 1m] "	"Frequency [Hz]"	"Sound Pessure Level [dB]  / [2.83V 1m] "	"Frequency [Hz]"	"Sound Pessure Level [dB]  / [2.83V 1m] "	"Frequency [Hz]"	"Sound Pessure Level [dB]  / [2.83V 1m] "	"Frequency [Hz]"	"Sound Pessure Level [dB]  / [2.83V 1m] "	"Frequency [Hz]"	"Sound Pessure Level [dB]  / [2.83V 1m] "	"Frequency [Hz]"	"Sound Pessure Level [dB]  / [2.83V 1m] "	"Frequency [Hz]"	"Sound Pessure Level [dB]  / [2.83V 1m] "	"Frequency [Hz]"	"Sound Pessure Level [dB]  / [2.83V 1m] "	"Frequency [Hz]"	"Sound Pessure Level [dB]  / [2.83V 1m] "	"Frequency [Hz]"	"Sound Pessure Level [dB]  / [2.83V 1m] "	"Frequency [Hz]"	"Sound Pessure Level [dB]  / [2.83V 1m] "	"Frequency [Hz]"	"Sound Pessure Level [dB]  / [2.83V 1m] "	"Frequency [Hz]"	"Sound Pessure Level [dB]  / [2.83V 1m] "	"Frequency [Hz]"	"Sound Pessure Level [dB]  / [2.83V 1m] "	"Frequency [Hz]"	"Sound Pessure Level [dB]  / [2.83V 1m] "	"Frequency [Hz]"	"Sound Pessure Level [dB]  / [2.83V 1m] "	"Frequency [Hz]"	"Sound Pessure Level [dB]  / [2.83V 1m] "	"Frequency [Hz]"	"Sound Pessure Level [dB]  / [2.83V 1m] "	"Frequency [Hz]"	"Sound Pessure Level [dB]  / [2.83V 1m] "	"Frequency [Hz]"	"Sound Pessure Level [dB]  / [2.83V 1m] "	"Frequency [Hz]"	"Sound Pessure Level [dB]  / [2.83V 1m] "	"Frequency [Hz]"	"Sound Pessure Level [dB]  / [2.83V 1m] "	"Frequency [Hz]"	"Sound Pessure Level [dB]  / [2.83V 1m] "	"Frequency [Hz]"	"Sound Pessure Level [dB]  / [2.83V 1m] "	"Frequency [Hz]"	"Sound Pessure Level [dB]  / [2.83V 1m] "	"Frequency [Hz]"	"Sound Pessure Level [dB]  / [2.83V 1m] "
20.5078	47.3706	20.5078	47.2709	20.5078	47.4421	20.5078	47.1432	20.5078	47.486	20.5078	46.9885	20.5078	47.5029	20.5078	46.8091	20.5078	47.4939	20.5078	46.6084	20.5078	47.4597	20.5078	46.3921	20.5078	47.4005	20.5078	46.1671	20.5078	47.3163	20.5078	45.9418	20.5078	47.2061	20.5078	45.7255	20.5078	47.0692	20.5078	45.5275	20.5078	46.9052	20.5078	45.3566	20.5078	46.716	20.5078	45.2208	20.5078	46.5061	20.5078	45.1265	20.5078	46.2835	20.5078	45.0781	20.5078	46.0585	20.5078	45.0765	20.5078	45.8419	20.5078	45.1193	20.5078	45.6429	20.5078	45.202	20.5078	45.4675	20.5078	45.3195
21.9727	53.703	21.9727	53.6176	21.9727	53.7826	21.9727	53.5283	21.9727	53.8544	21.9727	53.4371	21.9727	53.9166	21.9727	53.3462	21.9727	53.9671	21.9727	53.2574	21.9727	54.0037	21.9727	53.1726	21.9727	54.0239	21.9727	53.0932	21.9727	54.0249	21.9727	53.0201	21.9727	54.004	21.9727	52.9537	21.9727	53.9589	21.9727	52.8942	21.9727	53.8885	21.9727	52.8424	21.9727	53.7933	21.9727	52.7997	21.9727	53.6762	21.9727	52.7687	21.9727	53.5428	21.9727	52.753	21.9727	53.4005	21.9727	52.7563	21.9727	53.2579	21.9727	52.7818	21.9727	53.1236	21.9727	52.8316	21.9727	53.0047	21.9727	52.9063
23.4375	58.1807	23.4375	58.1142	23.4375	58.2416	23.4375	58.0437	23.4375	58.2956	23.4375	57.9705	23.4375	58.3408	23.4375	57.8959	23.4375	58.3756	23.4375	57.8211	23.4375	58.3979	23.4375	57.747	23.4375	58.4055	23.4375	57.6745	23.4375	58.3963	23.4375	57.6041	23.4375	58.3681	23.4375	57.5364	23.4375	58.3195	23.4375	57.4722	23.4375	58.25	23.4375	57.413	23.4375	58.1606	23.4375	57.3611	23.4375	58.0543	23.4375	57.3197	23.4375	57.9357	23.4375	57.2926	23.4375	57.8111	23.4375	57.2836	23.4375	57.6877	23.4375	57.2959	23.4375	57.5726	23.4375	57.3314	23.4375	57.472	23.4375	57.3905
24.9023	62.1515	24.9023	62.1037	24.9023	62.1935	24.9023	62.0512	24.9023	62.2287	24.9023	61.9947	24.9023	62.2557	24.9023	61.9349	24.9023	62.273	24.9023	61.8723	24.9023	62.2789	24.9023	61.8072	24.9023	62.2717	24.9023	61.7401	24.9023	62.2497	24.9023	61.6715	24.9023	62.2117	24.9023	61.6021	24.9023	62.1569	24.9023	61.5333	24.9023	62.0856	24.9023	61.4672	24.9023	61.9995	24.9023	61.4067	24.9023	61.9016	24.9023	61.3553	24.9023	61.7965	24.9023	61.3171	24.9023	61.6895	24.9023	61.2955	24.9023	61.5864	24.9023	61.2935	24.9023	61.493	24.9023	61.3125	24.9023	61.414	24.9023	61.3531
26.3672	65.6909	26.3672	65.6549	26.3672	65.7206	26.3672	65.6133	26.3672	65.7432	26.3672	65.5666	26.3672	65.7577	26.3672	65.5152	26.3672	65.7627	26.3672	65.4592	26.3672	65.757	26.3672	65.3991	26.3672	65.7392	26.3672	65.335	26.3672	65.7081	26.3672	65.2676	26.3672	65.6629	26.3672	65.1979	26.3672	65.6037	26.3672	65.1274	26.3672	65.5311	26.3672	65.0585	26.3672	65.4473	26.3672	64.9943	26.3672	65.3554	26.3672	64.9382	26.3672	65.2596	26.3672	64.8939	26.3672	65.1648	26.3672	64.8647	26.3672	65.0761	26.3672	64.8531	26.3672	64.9981	26.3672	64.8608	26.3672	64.9345	26.3672	64.8881
27.832	68.8469	27.832	68.8176	27.832	68.869	27.832	68.7818	27.832	68.8834	27.832	68.7397	27.832	68.8892	27.832	68.6916	27.832	68.8853	27.832	68.6375	27.832	68.8707	27.832	68.5776	27.832	68.8443	27.832	68.5125	27.832	68.8052	27.832	68.4428	27.832	68.7532	27.832	68.3699	27.832	68.6886	27.832	68.2955	27.832	68.6126	27.832	68.2225	27.832	68.5276	27.832	68.1539	27.832	68.4369	27.832	68.0932	27.832	68.3448	27.832	68.0441	27.832	68.2559	27.832	68.0096	27.832	68.1746	27.832	67.992	27.832	68.1049	27.832	67.9927	27.832	68.05	27.832	68.0122
29.2969	71.7552	29.2969	71.7309	29.2969	71.7718	29.2969	71.6993	29.2969	71.7801	29.2969	71.6605	29.2969	71.7795	29.2969	71.6147	29.2969	71.7692	29.2969	71.562	29.2969	71.7482	29.2969	71.5025	29.2969	71.7157	29.2969	71.4367	29.2969	71.6713	29.2969	71.3656	29.2969	71.6147	29.2969	71.2905	29.2969	71.5468	29.2969	71.2135	29.2969	71.469	29.2969	71.1376	29.2969	71.3839	29.2969	71.0659	29.2969	71.2948	29.2969	71.002	29.2969	71.2058	29.2969	70.9495	29.2969	71.1212	29.2969	70.9112	29.2969	71.0451	29.2969	70.8893	29.2969	70.981	29.2969	70.8853	29.2969	70.9319	29.2969	70.8996
30.7617	74.1947	30.7617	74.1731	30.7617	74.208	30.7617	74.1436	30.7617	74.2127	30.7617	74.1064	30.7617	74.2081	30.7617	74.0615	30.7617	74.1935	30.7617	74.009	30.7617	74.1682	30.7617	73.9492	30.7617	74.1316	30.7617	73.8827	30.7617	74.0834	30.7617	73.8104	30.7617	74.0238	30.7617	73.7341	30.7617	73.9538	30.7617	73.6559	30.7617	73.875	30.7617	73.5788	30.7617	73.7903	30.7617	73.5061	30.7617	73.7028	30.7617	73.4415	30.7617	73.6167	30.7617	73.388	30.7617	73.5358	30.7617	73.3487	30.7617	73.4639	30.7617	73.3253	30.7617	73.4043	30.7617	73.3192	30.7617	73.3593	30.7617	73.3306
32.2266	76.321	32.2266	76.3052	32.2266	76.327	32.2266	76.2797	32.2266	76.3228	32.2266	76.2447	32.2266	76.308	32.2266	76.2002	32.2266	76.2822	32.2266	76.1465	32.2266	76.245	32.2266	76.0838	32.2266	76.1961	32.2266	76.0131	32.2266	76.1361	32.2266	75.9357	32.2266	76.0658	32.2266	75.8538	32.2266	75.9869	32.2266	75.7701	32.2266	75.9021	32.2266	75.688	32.2266	75.8145	32.2266	75.6109	32.2266	75.7279	32.2266	75.5423	32.2266	75.6458	32.2266	75.485	32.2266	75.5719	32.2266	75.4415	32.2266	75.509	32.2266	75.413	32.2266	75.4591	32.2266	75.4005	32.2266	75.4239	32.2266	75.4042
33.6914	77.9705	33.6914	77.9572	33.6914	77.9733	33.6914	77.9333	33.6914	77.9652	33.6914	77.8989	33.6914	77.946	33.6914	77.8542	33.6914	77.9153	33.6914	77.7992	33.6914	77.873	33.6914	77.7345	33.6914	77.8191	33.6914	77.6609	33.6914	77.7542	33.6914	77.5801	33.6914	77.6794	33.6914	77.4944	33.6914	77.5966	33.6914	77.4066	33.6914	77.5086	33.6914	77.3202	33.6914	77.4188	33.6914	77.239	33.6914	77.3307	33.6914	77.1664	33.6914	77.2481	33.6914	77.1055	33.6914	77.1744	33.6914	77.0585	33.6914	77.1123	33.6914	77.0269	33.6914	77.0638	33.6914	77.0116	33.6914	77.0303	33.6914	77.0128
35.1563	79.1655	35.1563	79.1527	35.1563	79.1668	35.1563	79.1286	35.1563	79.1565	35.1563	79.0932	35.1563	79.1344	35.1563	79.0468	35.1563	79.1004	35.1563	78.9896	35.1563	79.0545	35.1563	78.9222	35.1563	78.997	35.1563	78.846	35.1563	78.9288	35.1563	78.7627	35.1563	78.8512	35.1563	78.6748	35.1563	78.7663	35.1563	78.5854	35.1563	78.6772	35.1563	78.4982	35.1563	78.5872	35.1563	78.4167	35.1563	78.4998	35.1563	78.3444	35.1563	78.4188	35.1563	78.2841	35.1563	78.3471	35.1563	78.2379	35.1563	78.2872	35.1563	78.2069	35.1563	78.2408	35.1563	78.1917	35.1563	78.209	35.1563	78.1925
36.6211	79.9505	36.6211	79.9385	36.6211	79.9505	36.6211	79.9145	36.6211	79.9383	36.6211	79.8787	36.6211	79.9138	36.6211	79.8313	36.6211	79.8768	36.6211	79.7725	36.6211	79.8274	36.6211	79.7033	36.6211	79.766	36.6211	79.6247	36.6211	79.6935	36.6211	79.5386	36.6211	79.6115	36.6211	79.4477	36.6211	79.5224	36.6211	79.3552	36.6211	79.4292	36.6211	79.2648	36.6211	79.3355	36.6211	79.1802	36.6211	79.2454	36.6211	79.1048	36.6211	79.1624	36.6211	79.0416	36.6211	79.0898	36.6211	78.9925	36.6211	79.0299	36.6211	78.9589	36.6211	78.9844	36.6211	78.9412	36.6211	78.9541	36.6211	78.9396
38.0859	80.6731	38.0859	80.6629	38.0859	80.6714	38.0859	80.6408	38.0859	80.6576	38.0859	80.6069	38.0859	80.6318	38.0859	80.5615	38.0859	80.5939	38.0859	80.5049	38.0859	80.5443	38.0859	80.4382	38.0859	80.4835	38.0859	80.3625	38.0859	80.4125	38.0859	80.2799	38.0859	80.3333	38.0859	80.1929	38.0859	80.248	38.0859	80.1049	38.0859	80.1598	38.0859	80.0192	38.0859	80.0721	38.0859	79.9394	38.0859	79.9885	38.0859	79.8687	38.0859	79.9123	38.0859	79.8095	38.0859	79.8462	38.0859	79.7636	38.0859	79.7922	38.0859	79.732	38.0859	79.7515	38.0859	79.7149	38.0859	79.7249	38.0859	79.7126
39.5508	81.0985	39.5508	81.0895	39.5508	81.0949	39.5508	81.0678	39.5508	81.0785	39.5508	81.0337	39.5508	81.0496	39.5508	80.9874	39.5508	81.0083	39.5508	80.9295	39.5508	80.955	39.5508	80.8609	39.5508	80.8907	39.5508	80.7833	39.5508	80.8165	39.5508	80.6987	39.5508	80.7344	39.5508	80.61	39.5508	80.6471	39.5508	80.5204	39.5508	80.5576	39.5508	80.4336	39.5508	80.4696	39.5508	80.3531	39.5508	80.3866	39.5508	80.2819	39.5508	80.3117	39.5508	80.2223	39.5508	80.2475	39.5508	80.176	39.5508	80.1956	39.5508	80.1438	39.5508	80.1572	39.5508	80.1258	39.5508	80.1326	39.5508	80.1221
41.0156	81.4741	41.0156	81.4655	41.0156	81.4692	41.0156	81.4436	41.0156	81.451	41.0156	81.4086	41.0156	81.4195	41.0156	81.3608	41.0156	81.3752	41.0156	81.301	41.0156	81.3186	41.0156	81.2303	41.0156	81.2508	41.0156	81.1505	41.0156	81.1734	41.0156	81.064	41.0156	81.0886	41.0156	80.9738	41.0156	80.9993	41.0156	80.8833	41.0156	80.9089	41.0156	80.7963	41.0156	80.821	41.0156	80.7163	41.0156	80.7392	41.0156	80.6462	41.0156	80.6664	41.0156	80.588	41.0156	80.6049	41.0156	80.543	41.0156	80.5561	41.0156	80.5116	41.0156	80.5205	41.0156	80.4938	41.0156	80.4983	41.0156	80.4894
42.4805	81.9109	42.4805	81.9037	42.4805	81.9039	42.4805	81.8823	42.4805	81.8826	42.4805	81.8468	42.4805	81.8474	42.4805	81.7979	42.4805	81.7987	42.4805	81.7362	42.4805	81.7372	42.4805	81.6631	42.4805	81.6643	42.4805	81.5804	42.4805	81.5816	42.4805	81.4905	42.4805	81.4916	42.4805	81.3966	42.4805	81.3974	42.4805	81.3022	42.4805	81.3027	42.4805	81.2112	42.4805	81.2111	42.4805	81.127	42.4805	81.1263	42.4805	81.0525	42.4805	81.0515	42.4805	80.9901	42.4805	80.9887	42.4805	80.9409	42.4805	80.9395	42.4805	80.9056	42.4805	80.9045	42.4805	80.8843	42.4805	80.8837	42.4805	80.877
43.9453	82.2684	43.9453	82.2636	43.9453	82.2586	43.9453	82.2441	43.9453	82.2342	43.9453	82.2102	43.9453	82.1957	43.9453	82.1625	43.9453	82.1436	43.9453	82.1018	43.9453	82.0791	43.9453	82.0297	43.9453	82.0035	43.9453	81.9479	43.9453	81.9191	43.9453	81.8593	43.9453	81.8284	43.9453	81.767	43.9453	81.7348	43.9453	81.6745	43.9453	81.642	43.9453	81.5856	43.9453	81.5538	43.9453	81.5037	43.9453	81.4736	43.9453	81.4314	43.9453	81.4043	43.9453	81.3706	43.9453	81.3475	43.9453	81.3225	43.9453	81.3043	43.9453	81.2873	43.9453	81.2747	43.9453	81.2649	43.9453	81.2585	43.9453	81.2553
45.4102	82.609	45.4102	82.606	45.4102	82.5959	45.4102	82.5869	45.4102	82.5668	45.4102	82.5522	45.4102	82.5223	45.4102	82.5025	45.4102	82.463	45.4102	82.4388	45.4102	82.3904	45.4102	82.3629	45.4102	82.3063	45.4102	82.277	45.4102	82.2131	45.4102	82.1838	45.4102	82.114	45.4102	82.0868	45.4102	82.0129	45.4102	81.9898	45.4102	81.9138	45.4102	81.8964	45.4102	81.8211	45.4102	81.8101	45.4102	81.7383	45.4102	81.7336	45.4102	81.6683	45.4102	81.6687	45.4102	81.6126	45.4102	81.6163	45.4102	81.5719	45.4102	81.5767	45.4102	81.546	45.4102	81.5497	45.4102	81.534	45.4102	81.5355
46.875	82.9735	46.875	82.9688	46.875	82.9611	46.875	82.9471	46.875	82.9315	46.875	82.9089	46.875	82.8851	46.875	82.8549	46.875	82.8228	46.875	82.7865	46.875	82.7458	46.875	82.7052	46.875	82.6558	46.875	82.6134	46.875	82.5553	46.875	82.514	46.875	82.4477	46.875	82.4102	46.875	82.3368	46.875	82.3059	46.875	82.2272	46.875	82.2048	46.875	82.1235	46.875	82.1104	46.875	82.0299	46.875	82.0256	46.875	81.9498	46.875	81.9525	46.875	81.8856	46.875	81.8924	46.875	81.8382	46.875	81.8461	46.875	81.808	46.875	81.8141	46.875	81.7944	46.875	81.7966
48.3398	83.2772	48.3398	83.2697	48.3398	83.2682	48.3398	83.246	48.3398	83.2427	48.3398	83.2066	48.3398	83.2011	48.3398	83.1526	48.3398	83.1443	48.3398	83.0852	48.3398	83.0735	48.3398	83.0064	48.3398	82.9905	48.3398	82.9186	48.3398	82.8979	48.3398	82.8249	48.3398	82.7987	48.3398	82.7285	48.3398	82.6969	48.3398	82.6331	48.3398	82.5966	48.3398	82.5421	48.3398	82.502	48.3398	82.4588	48.3398	82.4168	48.3398	82.3853	48.3398	82.3441	48.3398	82.3232	48.3398	82.2856	48.3398	82.2732	48.3398	82.2421	48.3398	82.2358	48.3398	82.2135	48.3398	82.2108	48.3398	82.1992	48.3398	82.1985
51.2695	84.0026	51.2695	83.9927	51.2695	83.9948	51.2695	83.9651	51.2695	83.9692	51.2695	83.9208	51.2695	83.9266	51.2695	83.8608	51.2695	83.868	51.2695	83.7869	51.2695	83.7951	51.2695	83.7016	51.2695	83.71	51.2695	83.6078	51.2695	83.6158	51.2695	83.509	51.2695	83.516	51.2695	83.4094	51.2695	83.4147	51.2695	83.313	51.2695	83.3161	51.2695	83.2235	51.2695	83.2242	51.2695	83.144	51.2695	83.1426	51.2695	83.0766	51.2695	83.0735	51.2695	83.0221	51.2695	83.0181	51.2695	82.9805	51.2695	82.9766	51.2695	82.9513	51.2695	82.9482	51.2695	82.9338	51.2695	82.9321	51.2695	82.9274
52.7344	84.4341	52.7344	84.4267	52.7344	84.4229	52.7344	84.4008	52.7344	84.3931	52.7344	84.3574	52.7344	84.3455	52.7344	84.2976	52.7344	84.2813	52.7344	84.2235	52.7344	84.2025	52.7344	84.1376	52.7344	84.1115	52.7344	84.0431	52.7344	84.0118	52.7344	83.9438	52.7344	83.9073	52.7344	83.8437	52.7344	83.8025	52.7344	83.7472	52.7344	83.7021	52.7344	83.6578	52.7344	83.6106	52.7344	83.5786	52.7344	83.5312	52.7344	83.5114	52.7344	83.4663	52.7344	83.4567	52.7344	83.4167	52.7344	83.4142	52.7344	83.3817	52.7344	83.3831	52.7344	83.3602	52.7344	83.3624	52.7344	83.3506	52.7344	83.3516
54.1992	84.8381	54.1992	84.8279	54.1992	84.8279	54.1992	84.7975	54.1992	84.7972	54.1992	84.748	54.1992	84.7469	54.1992	84.6809	54.1992	84.6783	54.1992	84.5984	54.1992	84.5935	54.1992	84.5034	54.1992	84.4951	54.1992	84.3994	54.1992	84.3867	54.1992	84.2904	54.1992	84.2725	54.1992	84.1808	54.1992	84.1573	54.1992	84.0751	54.1992	84.046	54.1992	83.977	54.1992	83.9435	54.1992	83.8898	54.1992	83.8534	54.1992	83.8152	54.1992	83.7785	54.1992	83.754	54.1992	83.7199	54.1992	83.7063	54.1992	83.6775	54.1992	83.6712	54.1992	83.6504	54.1992	83.6482	54.1992	83.6373	54.1992	83.6368
55.6641	85.0685	55.6641	85.0574	55.6641	85.0597	55.6641	85.0267	55.6641	85.0309	55.6641	84.9776	55.6641	84.9831	55.6641	84.9117	55.6641	84.9175	55.6641	84.8316	55.6641	84.8365	55.6641	84.7402	55.6641	84.7428	55.6641	84.6412	55.6641	84.64	55.6641	84.5387	55.6641	84.5324	55.6641	84.4371	55.6641	84.4246	55.6641	84.3405	55.6641	84.3216	55.6641	84.2524	55.6641	84.2277	55.6641	84.1753	55.6641	84.1463	55.6641	84.1106	55.6641	84.0797	55.6641	84.0585	55.6641	84.0286	55.6641	84.0183	55.6641	83.9924	55.6641	83.989	55.6641	83.97	55.6641	83.9696	55.6641	83.9595	55.6641	83.9597
58.5938	85.7053	58.5938	85.692	58.5938	85.6978	58.5938	85.6583	58.5938	85.6697	58.5938	85.6057	58.5938	85.6218	58.5938	85.5362	58.5938	85.5561	58.5938	85.4528	58.5938	85.4751	58.5938	85.359	58.5938	85.382	58.5938	85.259	58.5938	85.2812	58.5938	85.1576	58.5938	85.1772	58.5938	85.0594	58.5938	85.075	58.5938	84.9686	58.5938	84.9793	58.5938	84.8885	58.5938	84.894	58.5938	84.8212	58.5938	84.8218	58.5938	84.767	58.5938	84.764	58.5938	84.7255	58.5938	84.7203	58.5938	84.6952	58.5938	84.6894	58.5938	84.6745	58.5938	84.6697	58.5938	84.6621	58.5938	84.6594	58.5938	84.657
60.0586	86.0439	60.0586	86.0296	60.0586	86.0366	60.0586	85.9944	60.0586	86.0079	60.0586	85.9395	60.0586	85.959	60.0586	85.8672	60.0586	85.8918	60.0586	85.7806	60.0586	85.809	60.0586	85.6835	60.0586	85.7142	60.0586	85.5803	60.0586	85.6118	60.0586	85.4761	60.0586	85.5066	60.0586	85.3757	60.0586	85.4036	60.0586	85.2835	60.0586	85.3078	60.0586	85.203	60.0586	85.2228	60.0586	85.136	60.0586	85.1513	60.0586	85.0833	60.0586	85.0943	60.0586	85.0438	60.0586	85.0512	60.0586	85.0159	60.0586	85.0206	60.0586	84.9979	60.0586	85.0005	60.0586	84.988	60.0586	84.9891	60.0586	84.9852
62.9883	86.7327	62.9883	86.7174	62.9883	86.7248	62.9883	86.6798	62.9883	86.6942	62.9883	86.6214	62.9883	86.642	62.9883	86.5447	62.9883	86.5706	62.9883	86.4534	62.9883	86.483	62.9883	86.3518	62.9883	86.3833	62.9883	86.2449	62.9883	86.2765	62.9883	86.138	62.9883	86.1679	62.9883	86.0366	62.9883	86.0632	62.9883	85.9453	62.9883	85.9673	62.9883	85.8673	62.9883	85.8842	62.9883	85.8044	62.9883	85.8162	62.9883	85.7565	62.9883	85.7639	62.9883	85.7221	62.9883	85.7261	62.9883	85.6989	62.9883	85.7007	62.9883	85.6845	62.9883	85.685	62.9883	85.6767	62.9883	85.6768	62.9883	85.6742
64.4531	87.0576	64.4531	87.0411	64.4531	87.0504	64.4531	87.0015	64.4531	87.0195	64.4531	86.9405	64.4531	86.9665	64.4531	86.861	64.4531	86.8936	64.4531	86.7668	64.4531	86.8043	64.4531	86.6625	64.4531	86.7027	64.4531	86.5534	64.4531	86.5941	64.4531	86.4452	64.4531	86.4841	64.4531	86.3436	64.4531	86.3786	64.4531	86.253	64.4531	86.2826	64.4531	86.177	64.4531	86.2002	64.4531	86.1168	64.4531	86.1337	64.4531	86.0722	64.4531	86.0833	64.4531	86.0412	64.4531	86.0477	64.4531	86.0212	64.4531	86.0244	64.4531	86.0092	64.4531	86.0105	64.4531	86.003	64.4531	86.0034	64.4531	86.0012
67.3828	87.6113	67.3828	87.5907	67.3828	87.6064	67.3828	87.5453	67.3828	87.5763	67.3828	87.4773	67.3828	87.5224	67.3828	87.3898	67.3828	87.4474	67.3828	87.2872	67.3828	87.3551	67.3828	87.1747	67.3828	87.2504	67.3828	87.0585	67.3828	87.1388	67.3828	86.945	67.3828	87.0265	67.3828	86.8403	67.3828	86.9198	67.3828	86.7497	67.3828	86.8241	67.3828	86.6764	67.3828	86.7432	67.3828	86.6217	67.3828	86.6793	67.3828	86.5846	67.3828	86.632	67.3828	86.5622	67.3828	86.5994	67.3828	86.5511	67.3828	86.5783	67.3828	86.5475	67.3828	86.5652	67.3828	86.5483	67.3828	86.5571	67.3828	86.5517
68.8477	87.8554	68.8477	87.8328	68.8477	87.8513	68.8477	87.7844	68.8477	87.821	68.8477	87.7125	68.8477	87.766	68.8477	87.6203	68.8477	87.6891	68.8477	87.5124	68.8477	87.5943	68.8477	87.3945	68.8477	87.4867	68.8477	87.273	68.8477	87.3721	68.8477	87.1549	68.8477	87.2571	68.8477	87.0466	68.8477	87.148	68.8477	86.9536	68.8477	87.0505	68.8477	86.8794	68.8477	86.9685	68.8477	86.8253	68.8477	86.904	68.8477	86.7901	68.8477	86.8567	68.8477	86.7706	68.8477	86.8241	68.8477	86.7629	68.8477	86.8029	68.8477	86.7627	68.8477	86.7893	68.8477	86.7667	68.8477	86.78	68.8477	86.7727
