"SPL Horizontal"																																																																							
"On-Axis"		"10°"		"-10°"		"20°"		"-20°"		"30°"		"-30°"		"40°"		"-40°"		"50°"		"-50°"		"60°"		"-60°"		"70°"		"-70°"		"80°"		"-80°"		"90°"		"-90°"		"100°"		"-100°"		"110°"		"-110°"		"120°"		"-120°"		"130°"		"-130°"		"140°"		"-140°"		"150°"		"-150°"		"160°"		"-160°"		"170°"		"-170°"		"180°"	
"Frequency [Hz]"	"Sound Pessure Level [dB]  / [2.83V 1m] "	"Frequency [Hz]"	"Sound Pessure Level [dB]  / [2.83V 1m] "	"Frequency [Hz]"	"Sound Pessure Level [dB]  / [2.83V 1m] "	"Frequency [Hz]"	"Sound Pessure Level [dB]  / [2.83V 1m] "	"Frequency [Hz]"	"Sound Pessure Level [dB]  / [2.83V 1m] "	"Frequency [Hz]"	"Sound Pessure Level [dB]  / [2.83V 1m] "	"Frequency [Hz]"	"Sound Pessure Level [dB]  / [2.83V 1m] "	"Frequency [Hz]"	"Sound Pessure Level [dB]  / [2.83V 1m] "	"Frequency [Hz]"	"Sound Pessure Level [dB]  / [2.83V 1m] "	"Frequency [Hz]"	"Sound Pessure Level [dB]  / [2.83V 1m] "	"Frequency [Hz]"	"Sound Pessure Level [dB]  / [2.83V 1m] "	"Frequency [Hz]"	"Sound Pessure Level [dB]  / [2.83V 1m] "	"Frequency [Hz]"	"Sound Pessure Level [dB]  / [2.83V 1m] "	"Frequency [Hz]"	"Sound Pessure Level [dB]  / [2.83V 1m] "	"Frequency [Hz]"	"Sound Pessure Level [dB]  / [2.83V 1m] "	"Frequency [Hz]"	"Sound Pessure Level [dB]  / [2.83V 1m] "	"Frequency [Hz]"	"Sound Pessure Level [dB]  / [2.83V 1m] "	"Frequency [Hz]"	"Sound Pessure Level [dB]  / [2.83V 1m] "	"Frequency [Hz]"	"Sound Pessure Level [dB]  / [2.83V 1m] "	"Frequency [Hz]"	"Sound Pessure Level [dB]  / [2.83V 1m] "	"Frequency [Hz]"	"Sound Pessure Level [dB]  / [2.83V 1m] "	"Frequency [Hz]"	"Sound Pessure Level [dB]  / [2.83V 1m] "	"Frequency [Hz]"	"Sound Pessure Level [dB]  / [2.83V 1m] "	"Frequency [Hz]"	"Sound Pessure Level [dB]  / [2.83V 1m] "	"Frequency [Hz]"	"Sound Pessure Level [dB]  / [2.83V 1m] "	"Frequency [Hz]"	"Sound Pessure Level [dB]  / [2.83V 1m] "	"Frequency [Hz]"	"Sound Pessure Level [dB]  / [2.83V 1m] "	"Frequency [Hz]"	"Sound Pessure Level [dB]  / [2.83V 1m] "	"Frequency [Hz]"	"Sound Pessure Level [dB]  / [2.83V 1m] "	"Frequency [Hz]"	"Sound Pessure Level [dB]  / [2.83V 1m] "	"Frequency [Hz]"	"Sound Pessure Level [dB]  / [2.83V 1m] "	"Frequency [Hz]"	"Sound Pessure Level [dB]  / [2.83V 1m] "	"Frequency [Hz]"	"Sound Pessure Level [dB]  / [2.83V 1m] "	"Frequency [Hz]"	"Sound Pessure Level [dB]  / [2.83V 1m] "	"Frequency [Hz]"	"Sound Pessure Level [dB]  / [2.83V 1m] "	"Frequency [Hz]"	"Sound Pessure Level [dB]  / [2.83V 1m] "
20.5078	62.1564	20.5078	62.1339	20.5078	62.1545	20.5078	62.087	20.5078	62.1279	20.5078	62.0158	20.5078	62.0763	20.5078	61.9204	20.5078	61.9995	20.5078	61.8006	20.5078	61.8975	20.5078	61.6567	20.5078	61.7708	20.5078	61.4893	20.5078	61.6201	20.5078	61.2999	20.5078	61.4468	20.5078	61.0912	20.5078	61.2531	20.5078	60.8675	20.5078	61.042	20.5078	60.6353	20.5078	60.818	20.5078	60.4029	20.5078	60.5873	20.5078	60.1808	20.5078	60.358	20.5078	59.9806	20.5078	60.1405	20.5078	59.8146	20.5078	59.9465	20.5078	59.6943	20.5078	59.7884	20.5078	59.6287	20.5078	59.6777	20.5078	59.623
23.4375	60.2222	23.4375	60.1896	23.4375	60.2325	23.4375	60.1351	23.4375	60.2203	23.4375	60.0592	23.4375	60.1859	23.4375	59.963	23.4375	60.13	23.4375	59.8481	23.4375	60.0537	23.4375	59.7165	23.4375	59.9586	23.4375	59.5711	23.4375	59.8469	23.4375	59.4158	23.4375	59.7211	23.4375	59.2553	23.4375	59.5846	23.4375	59.0955	23.4375	59.4408	23.4375	58.943	23.4375	59.2941	23.4375	58.8047	23.4375	59.1486	23.4375	58.6871	23.4375	59.0088	23.4375	58.5955	23.4375	58.879	23.4375	58.5335	23.4375	58.763	23.4375	58.5025	23.4375	58.6643	23.4375	58.5023	23.4375	58.5859	23.4375	58.531
26.3672	66.5187	26.3672	66.5089	26.3672	66.5281	26.3672	66.4992	26.3672	66.5365	26.3672	66.4901	26.3672	66.5438	26.3672	66.4821	26.3672	66.5497	26.3672	66.4756	26.3672	66.5544	26.3672	66.4709	26.3672	66.5579	26.3672	66.468	26.3672	66.5605	26.3672	66.4668	26.3672	66.5624	26.3672	66.4671	26.3672	66.5636	26.3672	66.4687	26.3672	66.5641	26.3672	66.4713	26.3672	66.5637	26.3672	66.4746	26.3672	66.562	26.3672	66.4787	26.3672	66.5587	26.3672	66.4837	26.3672	66.5534	26.3672	66.4898	26.3672	66.5462	26.3672	66.4974	26.3672	66.5372	26.3672	66.5064	26.3672	66.527	26.3672	66.5165
29.2969	71.6785	29.2969	71.6682	29.2969	71.6872	29.2969	71.6559	29.2969	71.6945	29.2969	71.6413	29.2969	71.7003	29.2969	71.624	29.2969	71.7042	29.2969	71.6037	29.2969	71.7059	29.2969	71.5806	29.2969	71.7046	29.2969	71.5549	29.2969	71.6996	29.2969	71.5275	29.2969	71.6902	29.2969	71.4995	29.2969	71.6758	29.2969	71.4723	29.2969	71.6563	29.2969	71.4474	29.2969	71.6318	29.2969	71.4262	29.2969	71.6029	29.2969	71.4099	29.2969	71.5707	29.2969	71.3993	29.2969	71.5368	29.2969	71.3949	29.2969	71.503	29.2969	71.3971	29.2969	71.4715	29.2969	71.4061	29.2969	71.4439	29.2969	71.4218
32.2266	73.9095	32.2266	73.9055	32.2266	73.9123	32.2266	73.9004	32.2266	73.9135	32.2266	73.8944	32.2266	73.9133	32.2266	73.8877	32.2266	73.9115	32.2266	73.8806	32.2266	73.9082	32.2266	73.8731	32.2266	73.9036	32.2266	73.8654	32.2266	73.8978	32.2266	73.8574	32.2266	73.8909	32.2266	73.8492	32.2266	73.883	32.2266	73.8406	32.2266	73.8741	32.2266	73.8317	32.2266	73.8644	32.2266	73.8229	32.2266	73.8539	32.2266	73.8144	32.2266	73.843	32.2266	73.8069	32.2266	73.8321	32.2266	73.8012	32.2266	73.8216	32.2266	73.7979	32.2266	73.8123	32.2266	73.7973	32.2266	73.8048	32.2266	73.7997
35.1563	76.0567	35.1563	76.0491	35.1563	76.0618	35.1563	76.0391	35.1563	76.0643	35.1563	76.0268	35.1563	76.0643	35.1563	76.0124	35.1563	76.0616	35.1563	75.9959	35.1563	76.0561	35.1563	75.9777	35.1563	76.0479	35.1563	75.9582	35.1563	76.0371	35.1563	75.9378	35.1563	76.0236	35.1563	75.9173	35.1563	76.0077	35.1563	75.8972	35.1563	75.9898	35.1563	75.8785	35.1563	75.9701	35.1563	75.862	35.1563	75.9494	35.1563	75.8484	35.1563	75.9283	35.1563	75.8385	35.1563	75.9075	35.1563	75.8329	35.1563	75.8877	35.1563	75.8317	35.1563	75.8699	35.1563	75.8351	35.1563	75.8547	35.1563	75.8429
38.0859	78.5835	38.0859	78.5744	38.0859	78.5871	38.0859	78.5601	38.0859	78.5854	38.0859	78.5406	38.0859	78.5785	38.0859	78.5163	38.0859	78.5665	38.0859	78.4877	38.0859	78.5497	38.0859	78.4554	38.0859	78.5285	38.0859	78.4203	38.0859	78.5035	38.0859	78.3835	38.0859	78.4751	38.0859	78.3461	38.0859	78.444	38.0859	78.3096	38.0859	78.4111	38.0859	78.2753	38.0859	78.3772	38.0859	78.2447	38.0859	78.3432	38.0859	78.2191	38.0859	78.31	38.0859	78.1995	38.0859	78.2786	38.0859	78.1866	38.0859	78.2501	38.0859	78.1809	38.0859	78.2253	38.0859	78.1824	38.0859	78.2052	38.0859	78.1907
41.0156	79.9385	41.0156	79.9316	41.0156	79.9395	41.0156	79.9189	41.0156	79.9347	41.0156	79.9006	41.0156	79.9243	41.0156	79.8771	41.0156	79.9086	41.0156	79.8487	41.0156	79.888	41.0156	79.8163	41.0156	79.8629	41.0156	79.7806	41.0156	79.834	41.0156	79.7428	41.0156	79.8022	41.0156	79.704	41.0156	79.7683	41.0156	79.6658	41.0156	79.7333	41.0156	79.6295	41.0156	79.6981	41.0156	79.5967	41.0156	79.6639	41.0156	79.5686	41.0156	79.6316	41.0156	79.5464	41.0156	79.6019	41.0156	79.5308	41.0156	79.5759	41.0156	79.5223	41.0156	79.5541	41.0156	79.5207	41.0156	79.5372	41.0156	79.5258
43.9453	81.0828	43.9453	81.0885	43.9453	81.0686	43.9453	81.0856	43.9453	81.0463	43.9453	81.0742	43.9453	81.0165	43.9453	81.0545	43.9453	80.9799	43.9453	81.0269	43.9453	80.9375	43.9453	80.9923	43.9453	80.8904	43.9453	80.9515	43.9453	80.8398	43.9453	80.9059	43.9453	80.7874	43.9453	80.8567	43.9453	80.7345	43.9453	80.8056	43.9453	80.683	43.9453	80.7541	43.9453	80.6346	43.9453	80.7038	43.9453	80.591	43.9453	80.6561	43.9453	80.5537	43.9453	80.6124	43.9453	80.5242	43.9453	80.5738	43.9453	80.5036	43.9453	80.5414	43.9453	80.4925	43.9453	80.5163	43.9453	80.4911	43.9453	80.4992
46.875	82.0148	46.875	82.0142	46.875	82.0082	46.875	82.0065	46.875	81.9943	46.875	81.9921	46.875	81.9733	46.875	81.9715	46.875	81.9458	46.875	81.9452	46.875	81.9121	46.875	81.9141	46.875	81.8734	46.875	81.879	46.875	81.8305	46.875	81.8408	46.875	81.7849	46.875	81.8007	46.875	81.738	46.875	81.7596	46.875	81.6916	46.875	81.7186	46.875	81.6474	46.875	81.6788	46.875	81.6072	46.875	81.6412	46.875	81.5727	46.875	81.6067	46.875	81.5451	46.875	81.5761	46.875	81.5256	46.875	81.5505	46.875	81.5145	46.875	81.5307	46.875	81.5119	46.875	81.5176
49.8047	82.9517	49.8047	82.949	49.8047	82.9464	49.8047	82.9384	49.8047	82.9331	49.8047	82.9204	49.8047	82.912	49.8047	82.8955	49.8047	82.8835	49.8047	82.8646	49.8047	82.8485	49.8047	82.8286	49.8047	82.8079	49.8047	82.7887	49.8047	82.7629	49.8047	82.7459	49.8047	82.7151	49.8047	82.7016	49.8047	82.666	49.8047	82.6572	49.8047	82.6174	49.8047	82.6138	49.8047	82.5712	49.8047	82.5727	49.8047	82.5291	49.8047	82.5349	49.8047	82.4926	49.8047	82.5014	49.8047	82.463	49.8047	82.4729	49.8047	82.4411	49.8047	82.45	49.8047	82.4273	49.8047	82.4335	49.8047	82.4217	49.8047	82.4239
55.6641	84.4066	55.6641	84.4063	55.6641	84.3981	55.6641	84.3976	55.6641	84.3806	55.6641	84.3812	55.6641	84.3545	55.6641	84.3579	55.6641	84.3205	55.6641	84.3289	55.6641	84.2794	55.6641	84.2955	55.6641	84.2326	55.6641	84.259	55.6641	84.1818	55.6641	84.2207	55.6641	84.129	55.6641	84.1818	55.6641	84.0764	55.6641	84.1433	55.6641	84.0263	55.6641	84.1059	55.6641	83.9808	55.6641	84.0701	55.6641	83.9422	55.6641	84.0361	55.6641	83.912	55.6641	84.004	55.6641	83.8913	55.6641	83.9739	55.6641	83.8806	55.6641	83.9463	55.6641	83.8794	55.6641	83.9217	55.6641	83.8868	55.6641	83.9014
58.5938	85.3882	58.5938	85.3771	58.5938	85.3885	58.5938	85.3559	58.5938	85.3777	58.5938	85.3255	58.5938	85.3562	58.5938	85.2873	58.5938	85.3245	58.5938	85.243	58.5938	85.2837	58.5938	85.1945	58.5938	85.2354	58.5938	85.1437	58.5938	85.1812	58.5938	85.0927	58.5938	85.1236	58.5938	85.0434	58.5938	85.0647	58.5938	84.9973	58.5938	85.0072	58.5938	84.9554	58.5938	84.9534	58.5938	84.9185	58.5938	84.9056	58.5938	84.8865	58.5938	84.8654	58.5938	84.8594	58.5938	84.834	58.5938	84.8369	58.5938	84.8119	58.5938	84.8188	58.5938	84.7989	58.5938	84.8052	58.5938	84.7942	58.5938	84.7967
61.5234	85.8308	61.5234	85.8183	61.5234	85.8319	61.5234	85.795	61.5234	85.8216	61.5234	85.7619	61.5234	85.8	61.5234	85.7203	61.5234	85.768	61.5234	85.6721	61.5234	85.7268	61.5234	85.6191	61.5234	85.6779	61.5234	85.5638	61.5234	85.6232	61.5234	85.5083	61.5234	85.565	61.5234	85.4548	61.5234	85.5057	61.5234	85.4052	61.5234	85.4477	61.5234	85.3607	61.5234	85.3934	61.5234	85.3223	61.5234	85.3447	61.5234	85.2902	61.5234	85.3032	61.5234	85.2644	61.5234	85.2699	61.5234	85.2445	61.5234	85.2451	61.5234	85.2301	61.5234	85.2286	61.5234	85.221	61.5234	85.2196	61.5234	85.2173
67.3828	86.3449	67.3828	86.3226	67.3828	86.3545	67.3828	86.2885	67.3828	86.3512	67.3828	86.2439	67.3828	86.3352	67.3828	86.1906	67.3828	86.3074	67.3828	86.131	67.3828	86.2689	67.3828	86.0677	67.3828	86.2214	67.3828	86.0035	67.3828	86.167	67.3828	85.9412	67.3828	86.1079	67.3828	85.8836	67.3828	86.0468	67.3828	85.8325	67.3828	85.9861	67.3828	85.7895	67.3828	85.9281	67.3828	85.7552	67.3828	85.8751	67.3828	85.7295	67.3828	85.8284	67.3828	85.7119	67.3828	85.7891	67.3828	85.7013	67.3828	85.7574	67.3828	85.6969	67.3828	85.7331	67.3828	85.6978	67.3828	85.7156	67.3828	85.704
73.2422	86.9064	73.2422	86.8772	73.2422	86.9205	73.2422	86.8335	73.2422	86.9197	73.2422	86.7767	73.2422	86.9046	73.2422	86.7086	73.2422	86.8766	73.2422	86.6322	73.2422	86.8374	73.2422	86.5508	73.2422	86.7893	73.2422	86.4684	73.2422	86.7347	73.2422	86.389	73.2422	86.6763	73.2422	86.3167	73.2422	86.6167	73.2422	86.2551	73.2422	86.558	73.2422	86.2068	73.2422	86.5022	73.2422	86.1734	73.2422	86.4505	73.2422	86.155	73.2422	86.4034	73.2422	86.1504	73.2422	86.3609	73.2422	86.1577	73.2422	86.3225	73.2422	86.1741	73.2422	86.2873	73.2422	86.1971	73.2422	86.2547	73.2422	86.2244
76.1719	87.1643	76.1719	87.1428	76.1719	87.1694	76.1719	87.1053	76.1719	87.1583	76.1719	87.0529	76.1719	87.1322	76.1719	86.9874	76.1719	87.0926	76.1719	86.9115	76.1719	87.0417	76.1719	86.8284	76.1719	86.9822	76.1719	86.7422	76.1719	86.9169	76.1719	86.6569	76.1719	86.849	76.1719	86.5769	76.1719	86.7814	76.1719	86.506	76.1719	86.7169	76.1719	86.4474	76.1719	86.6573	76.1719	86.4032	76.1719	86.604	76.1719	86.3741	76.1719	86.5574	76.1719	86.3593	76.1719	86.5173	76.1719	86.3572	76.1719	86.4826	76.1719	86.3651	76.1719	86.4521	76.1719	86.3805	76.1719	86.4251	76.1719	86.401
82.0313	87.4136	82.0313	87.3929	82.0313	87.4178	82.0313	87.3566	82.0313	87.4059	82.0313	87.3059	82.0313	87.3788	82.0313	87.2431	82.0313	87.338	82.0313	87.171	82.0313	87.286	82.0313	87.0932	82.0313	87.2256	82.0313	87.0136	82.0313	87.1601	82.0313	86.9364	82.0313	87.093	82.0313	86.8655	82.0313	87.0277	82.0313	86.8044	82.0313	86.9671	82.0313	86.7555	82.0313	86.9134	82.0313	86.7201	82.0313	86.8679	82.0313	86.6982	82.0313	86.8306	82.0313	86.6886	82.0313	86.8008	82.0313	86.6889	82.0313	86.7769	82.0313	86.6964	82.0313	86.757	82.0313	86.7086	82.0313	86.7395	82.0313	86.7233
87.8906	87.9134	87.8906	87.8908	87.8906	87.9159	87.8906	87.8487	87.8906	87.8984	87.8906	87.7887	87.8906	87.862	87.8906	87.7133	87.8906	87.8086	87.8906	87.6258	87.8906	87.7409	87.8906	87.5305	87.8906	87.6625	87.8906	87.432	87.8906	87.5776	87.8906	87.3358	87.8906	87.4906	87.8906	87.2468	87.8906	87.4061	87.8906	87.1698	87.8906	87.3284	87.8906	87.1082	87.8906	87.2605	87.8906	87.0637	87.8906	87.2046	87.8906	87.0363	87.8906	87.1609	87.8906	87.0241	87.8906	87.1283	87.8906	87.0238	87.8906	87.1045	87.8906	87.0316	87.8906	87.0865	87.8906	87.0436	87.8906	87.0714	87.8906	87.0573
93.75	87.8321	93.75	87.8206	93.75	87.8221	93.75	87.788	93.75	87.7912	93.75	87.736	93.75	87.7416	93.75	87.6676	93.75	87.6765	93.75	87.587	93.75	87.6003	93.75	87.4995	93.75	87.5184	93.75	87.411	93.75	87.4369	93.75	87.3282	93.75	87.3621	93.75	87.257	93.75	87.2996	93.75	87.2027	93.75	87.2534	93.75	87.1685	93.75	87.2257	93.75	87.1551	93.75	87.216	93.75	87.1603	93.75	87.2212	93.75	87.1799	93.75	87.2362	93.75	87.2076	93.75	87.2547	93.75	87.2365	93.75	87.2704	93.75	87.2605	93.75	87.2783	93.75	87.2752
102.539	87.6674	102.539	87.6502	102.539	87.6544	102.539	87.6043	102.539	87.6115	102.539	87.5325	102.539	87.5402	102.539	87.4389	102.539	87.4438	102.539	87.3295	102.539	87.3274	102.539	87.2113	102.539	87.1977	102.539	87.0921	102.539	87.0629	102.539	86.9804	102.539	86.9324	102.539	86.8837	102.539	86.8156	102.539	86.8083	102.539	86.7211	102.539	86.7574	102.539	86.655	102.539	86.7309	102.539	86.6199	102.539	86.7252	102.539	86.6137	102.539	86.7337	102.539	86.6309	102.539	86.7484	102.539	86.6628	102.539	86.761	102.539	86.6998	102.539	86.7648	102.539	86.7329	102.539	86.7556
108.398	87.8514	108.398	87.8204	108.398	87.8458	108.398	87.7537	108.398	87.8037	108.398	87.654	108.398	87.7268	108.398	87.5255	108.398	87.6182	108.398	87.3741	108.398	87.4828	108.398	87.2075	108.398	87.3271	108.398	87.0352	108.398	87.1593	108.398	86.8679	108.398	86.9893	108.398	86.7165	108.398	86.8275	108.398	86.5905	108.398	86.6842	108.398	86.4968	108.398	86.5681	108.398	86.4376	108.398	86.4843	108.398	86.4102	108.398	86.4338	108.398	86.4073	108.398	86.4127	108.398	86.419	108.398	86.4133	108.398	86.4348	108.398	86.4256	108.398	86.4462	108.398	86.4398	108.398	86.448
117.188	87.843	117.188	87.8179	117.188	87.8306	117.188	87.7569	117.188	87.7808	117.188	87.6624	117.188	87.6947	117.188	87.5387	117.188	87.5753	117.188	87.3911	117.188	87.4271	117.188	87.2268	117.188	87.2566	117.188	87.0542	117.188	87.0727	117.188	86.8829	117.188	86.8858	117.188	86.723	117.188	86.7078	117.188	86.5836	117.188	86.5505	117.188	86.4721	117.188	86.4238	117.188	86.392	117.188	86.3338	117.188	86.3428	117.188	86.2812	117.188	86.3195	117.188	86.2613	117.188	86.3139	117.188	86.265	117.188	86.3164	117.188	86.2814	117.188	86.3182	117.188	86.3	117.188	86.3133
125.977	87.7664	125.977	87.7137	125.977	87.7776	125.977	87.6212	125.977	87.7471	125.977	87.4925	125.977	87.6757	125.977	87.3326	125.977	87.566	125.977	87.1487	125.977	87.4221	125.977	86.9501	125.977	87.2498	125.977	86.7483	125.977	87.0571	125.977	86.5558	125.977	86.8541	125.977	86.3853	125.977	86.6527	125.977	86.2476	125.977	86.4658	125.977	86.149	125.977	86.3056	125.977	86.0905	125.977	86.1821	125.977	86.067	125.977	86.1	125.977	86.0684	125.977	86.058	125.977	86.0824	125.977	86.0489	125.977	86.097	125.977	86.0608	125.977	86.1033	125.977	86.0807	125.977	86.0973
134.766	87.6066	134.766	87.5687	134.766	87.6003	134.766	87.4872	134.766	87.5507	134.766	87.3644	134.766	87.4601	134.766	87.2041	134.766	87.3324	134.766	87.0128	134.766	87.1735	134.766	86.7993	134.766	86.9917	134.766	86.5758	134.766	86.7974	134.766	86.3574	134.766	86.6033	134.766	86.1611	134.766	86.4232	134.766	86.0036	134.766	86.2704	134.766	85.8976	134.766	86.1555	134.766	85.8485	134.766	86.0839	134.766	85.8525	134.766	86.0542	134.766	85.8968	134.766	86.058	134.766	85.9632	134.766	86.0816	134.766	86.0322	134.766	86.1091	134.766	86.0879	134.766	86.1254	134.766	86.1199
143.555	87.3559	143.555	87.3137	143.555	87.3499	143.555	87.2253	143.555	87.2956	143.555	87.0939	143.555	87.194	143.555	86.9245	143.555	87.048	143.555	86.7243	143.555	86.8625	143.555	86.5031	143.555	86.6451	143.555	86.2733	143.555	86.4062	143.555	86.0499	143.555	86.1599	143.555	85.8491	143.555	85.9232	143.555	85.6866	143.555	85.7147	143.555	85.5738	143.555	85.5518	143.555	85.515	143.555	85.4464	143.555	85.505	143.555	85.4021	143.555	85.5303	143.555	85.4116	143.555	85.5721	143.555	85.4587	143.555	85.6106	143.555	85.5223	143.555	85.6297	143.555	85.5816	143.555	85.6202
155.273	87.0604	155.273	87.0064	155.273	87.0546	155.273	86.8934	155.273	86.9899	155.273	86.724	155.273	86.8685	155.273	86.5032	155.273	86.6947	155.273	86.2388	155.273	86.4752	155.273	85.9425	155.273	86.2197	155.273	85.6308	155.273	85.9413	155.273	85.3248	155.273	85.6573	155.273	85.0491	155.273	85.3878	155.273	84.8286	155.273	85.1543	155.273	84.6824	155.273	84.9753	155.273	84.6181	155.273	84.8623	155.273	84.6286	155.273	84.8156	155.273	84.6931	155.273	84.8239	155.273	84.784	155.273	84.8666	155.273	84.8732	155.273	84.9191	155.273	84.9387	155.273	84.9585	155.273	84.9678
164.063	87.6153	164.063	87.5772	164.063	87.587	164.063	87.4742	164.063	87.4919	164.063	87.3088	164.063	87.3306	164.063	87.0848	164.063	87.1055	164.063	86.8084	164.063	86.8214	164.063	86.4886	164.063	86.4865	164.063	86.1383	164.063	86.1145	164.063	85.7762	164.063	85.725	164.063	85.4259	164.063	85.3449	164.063	85.1151	164.063	85.006	164.063	84.8706	164.063	84.7401	164.063	84.711	164.063	84.5697	164.063	84.6394	164.063	84.5	164.063	84.6412	164.063	84.5159	164.063	84.6883	164.063	84.5868	164.063	84.7471	164.063	84.6761	164.063	84.7881	164.063	84.7516	164.063	84.7917
175.781	87.5585	175.781	87.4759	175.781	87.5808	175.781	87.3339	175.781	87.5428	175.781	87.1343	175.781	87.4449	175.781	86.8804	175.781	87.2884	175.781	86.5779	175.781	87.0754	175.781	86.2361	175.781	86.8096	175.781	85.8694	175.781	86.4974	175.781	85.4982	175.781	86.1493	175.781	85.1496	175.781	85.7811	175.781	84.8535	175.781	85.4159	175.781	84.6369	175.781	85.0824	175.781	84.5145	175.781	84.8114	175.781	84.4821	175.781	84.627	175.781	84.5166	175.781	84.5373	175.781	84.5837	175.781	84.5297	175.781	84.6483	175.781	84.5744	175.781	84.6838	175.781	84.6346	175.781	84.6778
190.43	87.4724	190.43	87.4098	190.43	87.4528	190.43	87.2655	190.43	87.3509	190.43	87.0412	190.43	87.1674	190.43	86.7399	190.43	86.9043	190.43	86.3675	190.43	86.5656	190.43	85.9347	190.43	86.1595	190.43	85.4592	190.43	85.7003	190.43	84.9687	190.43	85.2117	190.43	84.5022	190.43	84.7291	190.43	84.107	190.43	84.2984	190.43	83.8288	190.43	83.9689	190.43	83.6953	190.43	83.7773	190.43	83.7022	190.43	83.7317	190.43	83.8133	190.43	83.8055	190.43	83.9738	190.43	83.9475	190.43	84.1285	190.43	84.1008	190.43	84.2344	190.43	84.2175	190.43	84.2662
