"SPL Vertical"																																																																							
"On-Axis"		"10°"		"-10°"		"20°"		"-20°"		"30°"		"-30°"		"40°"		"-40°"		"50°"		"-50°"		"60°"		"-60°"		"70°"		"-70°"		"80°"		"-80°"		"90°"		"-90°"		"100°"		"-100°"		"110°"		"-110°"		"120°"		"-120°"		"130°"		"-130°"		"140°"		"-140°"		"150°"		"-150°"		"160°"		"-160°"		"170°"		"-170°"		"180°"	
"Frequency [Hz]"	"Sound Pessure Level [dB]  / [2.83V 1m] "	"Frequency [Hz]"	"Sound Pessure Level [dB]  / [2.83V 1m] "	"Frequency [Hz]"	"Sound Pessure Level [dB]  / [2.83V 1m] "	"Frequency [Hz]"	"Sound Pessure Level [dB]  / [2.83V 1m] "	"Frequency [Hz]"	"Sound Pessure Level [dB]  / [2.83V 1m] "	"Frequency [Hz]"	"Sound Pessure Level [dB]  / [2.83V 1m] "	"Frequency [Hz]"	"Sound Pessure Level [dB]  / [2.83V 1m] "	"Frequency [Hz]"	"Sound Pessure Level [dB]  / [2.83V 1m] "	"Frequency [Hz]"	"Sound Pessure Level [dB]  / [2.83V 1m] "	"Frequency [Hz]"	"Sound Pessure Level [dB]  / [2.83V 1m] "	"Frequency [Hz]"	"Sound Pessure Level [dB]  / [2.83V 1m] "	"Frequency [Hz]"	"Sound Pessure Level [dB]  / [2.83V 1m] "	"Frequency [Hz]"	"Sound Pessure Level [dB]  / [2.83V 1m] "	"Frequency [Hz]"	"Sound Pessure Level [dB]  / [2.83V 1m] "	"Frequency [Hz]"	"Sound Pessure Level [dB]  / [2.83V 1m] "	"Frequency [Hz]"	"Sound Pessure Level [dB]  / [2.83V 1m] "	"Frequency [Hz]"	"Sound Pessure Level [dB]  / [2.83V 1m] "	"Frequency [Hz]"	"Sound Pessure Level [dB]  / [2.83V 1m] "	"Frequency [Hz]"	"Sound Pessure Level [dB]  / [2.83V 1m] "	"Frequency [Hz]"	"Sound Pessure Level [dB]  / [2.83V 1m] "	"Frequency [Hz]"	"Sound Pessure Level [dB]  / [2.83V 1m] "	"Frequency [Hz]"	"Sound Pessure Level [dB]  / [2.83V 1m] "	"Frequency [Hz]"	"Sound Pessure Level [dB]  / [2.83V 1m] "	"Frequency [Hz]"	"Sound Pessure Level [dB]  / [2.83V 1m] "	"Frequency [Hz]"	"Sound Pessure Level [dB]  / [2.83V 1m] "	"Frequency [Hz]"	"Sound Pessure Level [dB]  / [2.83V 1m] "	"Frequency [Hz]"	"Sound Pessure Level [dB]  / [2.83V 1m] "	"Frequency [Hz]"	"Sound Pessure Level [dB]  / [2.83V 1m] "	"Frequency [Hz]"	"Sound Pessure Level [dB]  / [2.83V 1m] "	"Frequency [Hz]"	"Sound Pessure Level [dB]  / [2.83V 1m] "	"Frequency [Hz]"	"Sound Pessure Level [dB]  / [2.83V 1m] "	"Frequency [Hz]"	"Sound Pessure Level [dB]  / [2.83V 1m] "	"Frequency [Hz]"	"Sound Pessure Level [dB]  / [2.83V 1m] "	"Frequency [Hz]"	"Sound Pessure Level [dB]  / [2.83V 1m] "	"Frequency [Hz]"	"Sound Pessure Level [dB]  / [2.83V 1m] "	"Frequency [Hz]"	"Sound Pessure Level [dB]  / [2.83V 1m] "
20.5078	62.1564	20.5078	61.9782	20.5078	62.316	20.5078	61.7887	20.5078	62.4479	20.5078	61.5937	20.5078	62.5415	20.5078	61.3975	20.5078	62.5857	20.5078	61.2031	20.5078	62.57	20.5078	61.0126	20.5078	62.4859	20.5078	60.8275	20.5078	62.3292	20.5078	60.649	20.5078	62.1013	20.5078	60.478	20.5078	61.8112	20.5078	60.3156	20.5078	61.4749	20.5078	60.1635	20.5078	61.115	20.5078	60.0236	20.5078	60.7578	20.5078	59.8987	20.5078	60.4288	20.5078	59.7918	20.5078	60.1483	20.5078	59.7064	20.5078	59.9281	20.5078	59.6467	20.5078	59.7706	20.5078	59.617	20.5078	59.6715	20.5078	59.623
23.4375	60.2222	23.4375	60.0547	23.4375	60.3835	23.4375	59.8823	23.4375	60.5374	23.4375	59.7062	23.4375	60.6836	23.4375	59.5278	23.4375	60.8218	23.4375	59.348	23.4375	60.9513	23.4375	59.1679	23.4375	61.0688	23.4375	58.9888	23.4375	61.1661	23.4375	58.8123	23.4375	61.2286	23.4375	58.641	23.4375	61.2367	23.4375	58.479	23.4375	61.1699	23.4375	58.3321	23.4375	61.0131	23.4375	58.208	23.4375	60.7624	23.4375	58.1167	23.4375	60.428	23.4375	58.0694	23.4375	60.0339	23.4375	58.0779	23.4375	59.6137	23.4375	58.1529	23.4375	59.2035	23.4375	58.3026	23.4375	58.8352	23.4375	58.531
26.3672	66.5187	26.3672	66.2004	26.3672	66.8611	26.3672	65.91	26.3672	67.2224	26.3672	65.6498	26.3672	67.595	26.3672	65.4217	26.3672	67.9682	26.3672	65.2272	26.3672	68.3277	26.3672	65.0677	26.3672	68.6554	26.3672	64.9444	26.3672	68.9307	26.3672	64.8591	26.3672	69.1325	26.3672	64.8135	26.3672	69.2421	26.3672	64.8101	26.3672	69.2459	26.3672	64.8513	26.3672	69.1387	26.3672	64.9397	26.3672	68.9248	26.3672	65.0774	26.3672	68.6179	26.3672	65.2661	26.3672	68.2395	26.3672	65.5061	26.3672	67.8154	26.3672	65.7965	26.3672	67.3722	26.3672	66.1349	26.3672	66.9332	26.3672	66.5165
29.2969	71.6785	29.2969	71.4	29.2969	71.9774	29.2969	71.146	29.2969	72.2908	29.2969	70.9191	29.2969	72.6104	29.2969	70.7213	29.2969	72.9251	29.2969	70.5535	29.2969	73.2209	29.2969	70.4166	29.2969	73.4813	29.2969	70.311	29.2969	73.6885	29.2969	70.2373	29.2969	73.8253	29.2969	70.1958	29.2969	73.8776	29.2969	70.1873	29.2969	73.8366	29.2969	70.2124	29.2969	73.7013	29.2969	70.2722	29.2969	73.4792	29.2969	70.3678	29.2969	73.1858	29.2969	70.5004	29.2969	72.8426	29.2969	70.6713	29.2969	72.474	29.2969	70.8816	29.2969	72.1028	29.2969	71.132	29.2969	71.7478	29.2969	71.4218
32.2266	73.9095	32.2266	73.5911	32.2266	74.2481	32.2266	73.2988	32.2266	74.599	32.2266	73.037	32.2266	74.9523	32.2266	72.809	32.2266	75.2958	32.2266	72.6171	32.2266	75.6149	32.2266	72.4631	32.2266	75.8932	32.2266	72.348	32.2266	76.1139	32.2266	72.2727	32.2266	76.2611	32.2266	72.2378	32.2266	76.3222	32.2266	72.2439	32.2266	76.2897	32.2266	72.2914	32.2266	76.163	32.2266	72.381	32.2266	75.9488	32.2266	72.513	32.2266	75.6605	32.2266	72.6878	32.2266	75.3172	32.2266	72.9053	32.2266	74.9399	32.2266	73.1648	32.2266	74.5497	32.2266	73.4641	32.2266	74.1649	32.2266	73.7997
35.1563	76.0567	35.1563	75.7543	35.1563	76.3764	35.1563	75.4753	35.1563	76.7057	35.1563	75.224	35.1563	77.0351	35.1563	75.0039	35.1563	77.3528	35.1563	74.8176	35.1563	77.6449	35.1563	74.6668	35.1563	77.8959	35.1563	74.553	35.1563	78.0901	35.1563	74.4768	35.1563	78.2129	35.1563	74.4389	35.1563	78.2534	35.1563	74.4397	35.1563	78.2055	35.1563	74.4794	35.1563	78.0701	35.1563	74.5582	35.1563	77.8551	35.1563	74.6764	35.1563	77.5745	35.1563	74.834	35.1563	77.247	35.1563	75.0307	35.1563	76.8927	35.1563	75.2658	35.1563	76.5306	35.1563	75.5376	35.1563	76.1767	35.1563	75.8429
38.0859	78.5835	38.0859	78.2463	38.0859	78.9408	38.0859	77.9363	38.0859	79.3094	38.0859	77.6584	38.0859	79.6776	38.0859	77.4162	38.0859	80.0311	38.0859	77.2119	38.0859	80.3533	38.0859	77.047	38.0859	80.6255	38.0859	76.9223	38.0859	80.8291	38.0859	76.838	38.0859	80.9472	38.0859	76.7942	38.0859	80.9674	38.0859	76.7907	38.0859	80.8843	38.0859	76.8271	38.0859	80.7011	38.0859	76.9034	38.0859	80.4302	38.0859	77.0194	38.0859	80.0918	38.0859	77.1749	38.0859	79.7103	38.0859	77.3701	38.0859	79.3107	38.0859	77.6049	38.0859	78.9145	38.0859	77.8788	38.0859	78.5378	38.0859	78.1907
41.0156	79.9385	41.0156	79.6009	41.0156	80.295	41.0156	79.2897	41.0156	80.6612	41.0156	79.0102	41.0156	81.0252	41.0156	78.7664	41.0156	81.3728	41.0156	78.5609	41.0156	81.6874	41.0156	78.3954	41.0156	81.951	41.0156	78.2708	41.0156	82.1453	41.0156	78.1874	41.0156	82.2542	41.0156	78.145	41.0156	82.2661	41.0156	78.1432	41.0156	82.1763	41.0156	78.1815	41.0156	81.9889	41.0156	78.2592	41.0156	81.717	41.0156	78.3759	41.0156	81.3809	41.0156	78.531	41.0156	81.0052	41.0156	78.7242	41.0156	80.6143	41.0156	78.9548	41.0156	80.2287	41.0156	79.2224	41.0156	79.8628	41.0156	79.5258
43.9453	81.0828	43.9453	80.7528	43.9453	81.4292	43.9453	80.4465	43.9453	81.783	43.9453	80.1692	43.9453	82.1326	43.9453	79.9249	43.9453	82.4639	43.9453	79.7162	43.9453	82.7608	43.9453	79.5449	43.9453	83.0054	43.9453	79.4122	43.9453	83.1802	43.9453	79.3184	43.9453	83.2696	43.9453	79.2638	43.9453	83.2627	43.9453	79.248	43.9453	83.1556	43.9453	79.271	43.9453	82.9534	43.9453	79.3323	43.9453	82.6701	43.9453	79.4318	43.9453	82.3267	43.9453	79.5694	43.9453	81.9484	43.9453	79.7451	43.9453	81.5595	43.9453	79.9588	43.9453	81.18	43.9453	80.2103	43.9453	80.8238	43.9453	80.4992
46.875	82.0148	46.875	81.6758	46.875	82.3714	46.875	81.3622	46.875	82.7357	46.875	81.0798	46.875	83.0954	46.875	80.8331	46.875	83.4361	46.875	80.6248	46.875	83.7411	46.875	80.4566	46.875	83.9926	46.875	80.3296	46.875	84.1729	46.875	80.2436	46.875	84.2667	46.875	80.1986	46.875	84.2633	46.875	80.1936	46.875	84.1594	46.875	80.2281	46.875	83.9602	46.875	80.3012	46.875	83.6799	46.875	80.4122	46.875	83.3397	46.875	80.5605	46.875	82.9645	46.875	80.7456	46.875	82.5781	46.875	80.9672	46.875	82.2001	46.875	81.2247	46.875	81.844	46.875	81.5176
49.8047	82.9517	49.8047	82.6121	49.8047	83.3076	49.8047	82.2966	49.8047	83.6696	49.8047	82.0114	49.8047	84.0258	49.8047	81.7612	49.8047	84.3616	49.8047	81.5492	49.8047	84.6608	49.8047	81.3776	49.8047	84.9057	49.8047	81.2475	49.8047	85.0791	49.8047	81.1593	49.8047	85.1659	49.8047	81.1127	49.8047	85.1561	49.8047	81.107	49.8047	85.0469	49.8047	81.1412	49.8047	84.8442	49.8047	81.2145	49.8047	84.5626	49.8047	81.3256	49.8047	84.2235	49.8047	81.4739	49.8047	83.8514	49.8047	81.6585	49.8047	83.4698	49.8047	81.8788	49.8047	83.0971	49.8047	82.1342	49.8047	82.746	49.8047	82.4239
55.6641	84.4066	55.6641	84.073	55.6641	84.7571	55.6641	83.7647	55.6641	85.1139	55.6641	83.4883	55.6641	85.4643	55.6641	83.2483	55.6641	85.7933	55.6641	83.0479	55.6641	86.0841	55.6641	82.8888	55.6641	86.3189	55.6641	82.7715	55.6641	86.4807	55.6641	82.6956	55.6641	86.5548	55.6641	82.6601	55.6641	86.5324	55.6641	82.6635	55.6641	86.412	55.6641	82.7039	55.6641	86.2014	55.6641	82.7796	55.6641	85.9175	55.6641	82.8888	55.6641	85.5833	55.6641	83.0303	55.6641	85.2242	55.6641	83.2028	55.6641	84.863	55.6641	83.4056	55.6641	84.5165	55.6641	83.6384	55.6641	84.1945	55.6641	83.9014
58.5938	85.3882	58.5938	85.0267	58.5938	85.7661	58.5938	84.6909	58.5938	86.1491	58.5938	84.3884	58.5938	86.5237	58.5938	84.1248	58.5938	86.874	58.5938	83.9044	58.5938	87.1823	58.5938	83.7295	58.5938	87.4295	58.5938	83.6012	58.5938	87.597	58.5938	83.5192	58.5938	87.6692	58.5938	83.4822	58.5938	87.6364	58.5938	83.4878	58.5938	87.4977	58.5938	83.5335	58.5938	87.2626	58.5938	83.6162	58.5938	86.9505	58.5938	83.7336	58.5938	86.5874	58.5938	83.8834	58.5938	86.2009	58.5938	84.0646	58.5938	85.8148	58.5938	84.2768	58.5938	85.4465	58.5938	84.5206	58.5938	85.1056	58.5938	84.7967
61.5234	85.8308	61.5234	85.4683	61.5234	86.209	61.5234	85.1309	61.5234	86.5915	61.5234	84.8263	61.5234	86.9647	61.5234	84.5604	61.5234	87.3128	61.5234	84.3374	61.5234	87.618	61.5234	84.16	61.5234	87.8614	61.5234	84.0295	61.5234	88.0245	61.5234	83.9456	61.5234	88.0919	61.5234	83.907	61.5234	88.0543	61.5234	83.9116	61.5234	87.9112	61.5234	83.9565	61.5234	87.6729	61.5234	84.0389	61.5234	87.359	61.5234	84.1561	61.5234	86.996	61.5234	84.306	61.5234	86.6111	61.5234	84.4872	61.5234	86.2278	61.5234	84.6992	61.5234	85.8625	61.5234	84.9424	61.5234	85.5243	61.5234	85.2173
67.3828	86.3449	67.3828	85.9734	67.3828	86.7315	67.3828	85.6274	67.3828	87.1212	67.3828	85.3151	67.3828	87.4997	67.3828	85.0429	67.3828	87.8508	67.3828	84.8153	67.3828	88.1561	67.3828	84.6352	67.3828	88.3967	67.3828	84.5038	67.3828	88.5541	67.3828	84.4205	67.3828	88.6133	67.3828	84.3837	67.3828	88.5658	67.3828	84.3908	67.3828	88.412	67.3828	84.4387	67.3828	88.1634	67.3828	84.5241	67.3828	87.8413	67.3828	84.644	67.3828	87.473	67.3828	84.7958	67.3828	87.0863	67.3828	84.978	67.3828	86.7042	67.3828	85.1899	67.3828	86.3419	67.3828	85.4317	67.3828	86.0075	67.3828	85.704
73.2422	86.9064	73.2422	86.5283	73.2422	87.2972	73.2422	86.1738	73.2422	87.6878	73.2422	85.8524	73.2422	88.0637	73.2422	85.5716	73.2422	88.4084	73.2422	85.3372	73.2422	88.7041	73.2422	85.1528	73.2422	88.932	73.2422	85.0199	73.2422	89.0742	73.2422	84.9383	73.2422	89.1166	73.2422	84.9058	73.2422	89.0515	73.2422	84.9192	73.2422	88.8813	73.2422	84.9744	73.2422	88.6193	73.2422	85.0667	73.2422	88.2891	73.2422	85.1921	73.2422	87.9198	73.2422	85.3467	73.2422	87.5398	73.2422	85.528	73.2422	87.1709	73.2422	85.7346	73.2422	86.826	73.2422	85.9664	73.2422	86.5104	73.2422	86.2244
76.1719	87.1643	76.1719	86.7862	76.1719	87.5541	76.1719	86.4307	76.1719	87.9429	76.1719	86.1074	76.1719	88.3161	76.1719	85.824	76.1719	88.6573	76.1719	85.5862	76.1719	88.9486	76.1719	85.398	76.1719	89.171	76.1719	85.2612	76.1719	89.3066	76.1719	85.1755	76.1719	89.3409	76.1719	85.139	76.1719	89.2665	76.1719	85.1483	76.1719	89.0858	76.1719	85.1991	76.1719	88.813	76.1719	85.2866	76.1719	88.4726	76.1719	85.4063	76.1719	88.0947	76.1719	85.5545	76.1719	87.7087	76.1719	85.7284	76.1719	87.3371	76.1719	85.9269	76.1719	86.993	76.1719	86.1505	76.1719	86.681	76.1719	86.401
82.0313	87.4136	82.0313	87.0282	82.0313	87.8122	82.0313	86.6682	82.0313	88.2105	82.0313	86.3436	82.0313	88.5929	82.0313	86.0622	82.0313	88.942	82.0313	85.8296	82.0313	89.2393	82.0313	85.6491	82.0313	89.4654	82.0313	85.5217	82.0313	89.6022	82.0313	85.4462	82.0313	89.6355	82.0313	85.4198	82.0313	89.5584	82.0313	85.4385	82.0313	89.3743	82.0313	85.4977	82.0313	89.0987	82.0313	85.5926	82.0313	88.7577	82.0313	85.7186	82.0313	88.3824	82.0313	85.8719	82.0313	88.0024	82.0313	86.0498	82.0313	87.639	82.0313	86.2507	82.0313	87.3034	82.0313	86.4748	82.0313	86.9986	82.0313	86.7233
87.8906	87.9134	87.8906	87.5119	87.8906	88.3237	87.8906	87.132	87.8906	88.7285	87.8906	86.7849	87.8906	89.1121	87.8906	86.48	87.8906	89.4573	87.8906	86.2247	87.8906	89.7454	87.8906	86.0239	87.8906	89.9568	87.8906	85.8797	87.8906	90.0734	87.8906	85.7917	87.8906	90.0811	87.8906	85.7576	87.8906	89.974	87.8906	85.7728	87.8906	89.7583	87.8906	85.832	87.8906	89.4532	87.8906	85.9293	87.8906	89.0888	87.8906	86.0586	87.8906	88.6993	87.8906	86.2149	87.8906	88.3142	87.8906	86.3941	87.8906	87.9526	87.8906	86.5941	87.8906	87.6228	87.8906	86.8146	87.8906	87.3254	87.8906	87.0573
93.75	87.8321	93.75	87.4136	93.75	88.2577	93.75	87.0178	93.75	88.6741	93.75	86.6589	93.75	89.0644	93.75	86.3495	93.75	89.4111	93.75	86.0994	93.75	89.6956	93.75	85.9148	93.75	89.8996	93.75	85.798	93.75	90.0062	93.75	85.7472	93.75	90.0036	93.75	85.7574	93.75	89.8886	93.75	85.8209	93.75	89.6711	93.75	85.929	93.75	89.3745	93.75	86.0722	93.75	89.0324	93.75	86.2416	93.75	88.6798	93.75	86.4295	93.75	88.3436	93.75	86.6295	93.75	88.0368	93.75	86.8378	93.75	87.7606	93.75	87.0526	93.75	87.5092	93.75	87.2752
102.539	87.6674	102.539	87.2282	102.539	88.105	102.539	86.804	102.539	88.5243	102.539	86.4114	102.539	88.9086	102.539	86.0656	102.539	89.2407	102.539	85.7796	102.539	89.5029	102.539	85.5624	102.539	89.6772	102.539	85.4184	102.539	89.7469	102.539	85.3468	102.539	89.7008	102.539	85.3423	102.539	89.5369	102.539	85.3959	102.539	89.2673	102.539	85.497	102.539	88.9197	102.539	85.6342	102.539	88.5329	102.539	85.7966	102.539	88.1471	102.539	85.9752	102.539	87.7917	102.539	86.1629	102.539	87.4796	102.539	86.3556	102.539	87.2094	102.539	86.5523	102.539	86.9716	102.539	86.7556
108.398	87.8514	108.398	87.3959	108.398	88.2928	108.398	86.9419	108.398	88.705	108.398	86.5063	108.398	89.0732	108.398	86.106	108.398	89.3821	108.398	85.7574	108.398	89.6154	108.398	85.4743	108.398	89.7562	108.398	85.2664	108.398	89.7887	108.398	85.1375	108.398	89.702	108.398	85.0856	108.398	89.495	108.398	85.1036	108.398	89.1812	108.398	85.1803	108.398	88.7905	108.398	85.303	108.398	88.3642	108.398	85.4589	108.398	87.9442	108.398	85.6369	108.398	87.5601	108.398	85.8281	108.398	87.224	108.398	86.0273	108.398	86.9333	108.398	86.2331	108.398	86.6783	108.398	86.448
117.188	87.843	117.188	87.4067	117.188	88.2641	117.188	86.9698	117.188	88.6559	117.188	86.5476	117.188	89.0036	117.188	86.1555	117.188	89.2918	117.188	85.8084	117.188	89.5035	117.188	85.5194	117.188	89.6208	117.188	85.2987	117.188	89.6269	117.188	85.1517	117.188	89.5099	117.188	85.079	117.188	89.2693	117.188	85.076	117.188	88.9214	117.188	85.1341	117.188	88.5018	117.188	85.2418	117.188	88.0593	117.188	85.3865	117.188	87.6419	117.188	85.5559	117.188	87.2799	117.188	85.7394	117.188	86.9798	117.188	85.9289	117.188	86.7301	117.188	86.1202	117.188	86.5131	117.188	86.3133
125.977	87.7664	125.977	87.3341	125.977	88.181	125.977	86.899	125.977	88.5638	125.977	86.4762	125.977	88.9005	125.977	86.0816	125.977	89.1758	125.977	85.7302	125.977	89.3729	125.977	85.4355	125.977	89.474	125.977	85.2078	125.977	89.4621	125.977	85.0529	125.977	89.3252	125.977	84.9718	125.977	89.0628	125.977	84.9606	125.977	88.6922	125.977	85.011	125.977	88.2507	125.977	85.1117	125.977	87.7899	125.977	85.2494	125.977	87.3605	125.977	85.4106	125.977	86.9952	125.977	85.5831	125.977	86.7014	125.977	85.7573	125.977	86.4669	125.977	85.9284	125.977	86.272	125.977	86.0973
134.766	87.6066	134.766	87.1673	134.766	88.0245	134.766	86.7242	134.766	88.4049	134.766	86.2963	134.766	88.7322	134.766	85.9026	134.766	88.9909	134.766	85.5611	134.766	89.1646	134.766	85.2867	134.766	89.236	134.766	85.0891	134.766	89.1892	134.766	84.9718	134.766	89.0139	134.766	84.9324	134.766	88.7132	134.766	84.9631	134.766	88.3106	134.766	85.052	134.766	87.8533	134.766	85.185	134.766	87.4026	134.766	85.3466	134.766	87.0139	134.766	85.5212	134.766	86.7154	134.766	85.6945	134.766	86.5029	134.766	85.8553	134.766	86.3518	134.766	85.997	134.766	86.2324	134.766	86.1199
143.555	87.3559	143.555	86.9033	143.555	87.7809	143.555	86.4415	143.555	88.1621	143.555	85.9909	143.555	88.4845	143.555	85.5732	143.555	88.7328	143.555	85.2099	143.555	88.8903	143.555	84.9191	143.555	88.9386	143.555	84.7132	143.555	88.8597	143.555	84.5971	143.555	88.6407	143.555	84.5671	143.555	88.2827	143.555	84.6125	143.555	87.8103	143.555	84.7173	143.555	87.2771	143.555	84.8624	143.555	86.7579	143.555	85.0278	143.555	86.3241	143.555	85.1943	143.555	86.0144	143.555	85.3454	143.555	85.8248	143.555	85.4688	143.555	85.7223	143.555	85.5592	143.555	85.666	143.555	85.6202
155.273	87.0604	155.273	86.5471	155.273	87.5249	155.273	86.006	155.273	87.9239	155.273	85.463	155.273	88.2434	155.273	84.9478	155.273	88.47	155.273	84.492	155.273	88.5897	155.273	84.1241	155.273	88.5869	155.273	83.8643	155.273	88.4462	155.273	83.721	155.273	88.1584	155.273	83.6891	155.273	87.7297	155.273	83.7525	155.273	87.1932	155.273	83.888	155.273	86.6134	155.273	84.0693	155.273	86.0736	155.273	84.2709	155.273	85.644	155.273	84.4696	155.273	85.3509	155.273	84.647	155.273	85.1761	155.273	84.7906	155.273	85.0795	155.273	84.8959	155.273	85.021	155.273	84.9678
164.063	87.6153	164.063	87.1001	164.063	88.0656	164.063	86.5365	164.063	88.4379	164.063	85.9466	164.063	88.7214	164.063	85.3577	164.063	88.9054	164.063	84.8022	164.063	88.977	164.063	84.3147	164.063	88.9207	164.063	83.9272	164.063	88.719	164.063	83.6629	164.063	88.3583	164.063	83.5309	164.063	87.8393	164.063	83.5241	164.063	87.1923	164.063	83.6215	164.063	86.4888	164.063	83.7933	164.063	85.8344	164.063	84.0067	164.063	85.3297	164.063	84.2303	164.063	85.0188	164.063	84.437	164.063	84.874	164.063	84.606	164.063	84.8287	164.063	84.725	164.063	84.8171	164.063	84.7917
175.781	87.5585	175.781	87.0931	175.781	87.9544	175.781	86.5727	175.781	88.2707	175.781	86.0177	175.781	88.5001	175.781	85.4542	175.781	88.6358	175.781	84.9137	175.781	88.6691	175.781	84.4306	175.781	88.5878	175.781	84.0379	175.781	88.377	175.781	83.761	175.781	88.0252	175.781	83.6126	175.781	87.5346	175.781	83.5891	175.781	86.9359	175.781	83.6722	175.781	86.2949	175.781	83.8326	175.781	85.7001	175.781	84.0354	175.781	85.2289	175.781	84.2455	175.781	84.9147	175.781	84.4316	175.781	84.7449	175.781	84.5705	175.781	84.681	175.781	84.6509	175.781	84.6747	175.781	84.6778
190.43	87.4724	190.43	86.9265	190.43	87.9127	190.43	86.2936	190.43	88.234	190.43	85.5985	190.43	88.4262	190.43	84.8732	190.43	88.4809	190.43	84.1577	190.43	88.3889	190.43	83.4981	190.43	88.1383	190.43	82.9431	190.43	87.7165	190.43	82.5363	190.43	87.1184	190.43	82.3062	190.43	86.367	190.43	82.2584	190.43	85.5408	190.43	82.3741	190.43	84.7842	190.43	82.6157	190.43	84.257	190.43	82.9362	190.43	84.027	190.43	83.2877	190.43	84.028	190.43	83.627	190.43	84.1352	190.43	83.9191	190.43	84.2458	190.43	84.1377	190.43	84.2993	190.43	84.2662
