"SPL Vertical"																																																																							
"On-Axis"		"10°"		"-10°"		"20°"		"-20°"		"30°"		"-30°"		"40°"		"-40°"		"50°"		"-50°"		"60°"		"-60°"		"70°"		"-70°"		"80°"		"-80°"		"90°"		"-90°"		"100°"		"-100°"		"110°"		"-110°"		"120°"		"-120°"		"130°"		"-130°"		"140°"		"-140°"		"150°"		"-150°"		"160°"		"-160°"		"170°"		"-170°"		"180°"	
"Frequency [Hz]"	"Sound Pessure Level [dB]  / [2.83V 1m] "	"Frequency [Hz]"	"Sound Pessure Level [dB]  / [2.83V 1m] "	"Frequency [Hz]"	"Sound Pessure Level [dB]  / [2.83V 1m] "	"Frequency [Hz]"	"Sound Pessure Level [dB]  / [2.83V 1m] "	"Frequency [Hz]"	"Sound Pessure Level [dB]  / [2.83V 1m] "	"Frequency [Hz]"	"Sound Pessure Level [dB]  / [2.83V 1m] "	"Frequency [Hz]"	"Sound Pessure Level [dB]  / [2.83V 1m] "	"Frequency [Hz]"	"Sound Pessure Level [dB]  / [2.83V 1m] "	"Frequency [Hz]"	"Sound Pessure Level [dB]  / [2.83V 1m] "	"Frequency [Hz]"	"Sound Pessure Level [dB]  / [2.83V 1m] "	"Frequency [Hz]"	"Sound Pessure Level [dB]  / [2.83V 1m] "	"Frequency [Hz]"	"Sound Pessure Level [dB]  / [2.83V 1m] "	"Frequency [Hz]"	"Sound Pessure Level [dB]  / [2.83V 1m] "	"Frequency [Hz]"	"Sound Pessure Level [dB]  / [2.83V 1m] "	"Frequency [Hz]"	"Sound Pessure Level [dB]  / [2.83V 1m] "	"Frequency [Hz]"	"Sound Pessure Level [dB]  / [2.83V 1m] "	"Frequency [Hz]"	"Sound Pessure Level [dB]  / [2.83V 1m] "	"Frequency [Hz]"	"Sound Pessure Level [dB]  / [2.83V 1m] "	"Frequency [Hz]"	"Sound Pessure Level [dB]  / [2.83V 1m] "	"Frequency [Hz]"	"Sound Pessure Level [dB]  / [2.83V 1m] "	"Frequency [Hz]"	"Sound Pessure Level [dB]  / [2.83V 1m] "	"Frequency [Hz]"	"Sound Pessure Level [dB]  / [2.83V 1m] "	"Frequency [Hz]"	"Sound Pessure Level [dB]  / [2.83V 1m] "	"Frequency [Hz]"	"Sound Pessure Level [dB]  / [2.83V 1m] "	"Frequency [Hz]"	"Sound Pessure Level [dB]  / [2.83V 1m] "	"Frequency [Hz]"	"Sound Pessure Level [dB]  / [2.83V 1m] "	"Frequency [Hz]"	"Sound Pessure Level [dB]  / [2.83V 1m] "	"Frequency [Hz]"	"Sound Pessure Level [dB]  / [2.83V 1m] "	"Frequency [Hz]"	"Sound Pessure Level [dB]  / [2.83V 1m] "	"Frequency [Hz]"	"Sound Pessure Level [dB]  / [2.83V 1m] "	"Frequency [Hz]"	"Sound Pessure Level [dB]  / [2.83V 1m] "	"Frequency [Hz]"	"Sound Pessure Level [dB]  / [2.83V 1m] "	"Frequency [Hz]"	"Sound Pessure Level [dB]  / [2.83V 1m] "	"Frequency [Hz]"	"Sound Pessure Level [dB]  / [2.83V 1m] "	"Frequency [Hz]"	"Sound Pessure Level [dB]  / [2.83V 1m] "	"Frequency [Hz]"	"Sound Pessure Level [dB]  / [2.83V 1m] "
20.5078	69.9045	20.5078	69.7801	20.5078	70.0059	20.5078	69.6371	20.5078	70.0794	20.5078	69.4802	20.5078	70.1211	20.5078	69.3139	20.5078	70.1273	20.5078	69.1423	20.5078	70.0956	20.5078	68.9694	20.5078	70.0251	20.5078	68.799	20.5078	69.9166	20.5078	68.6346	20.5078	69.7731	20.5078	68.4796	20.5078	69.5996	20.5078	68.3373	20.5078	69.403	20.5078	68.2107	20.5078	69.1916	20.5078	68.1028	20.5078	68.9746	20.5078	68.0167	20.5078	68.7613	20.5078	67.9552	20.5078	68.5603	20.5078	67.921	20.5078	68.379	20.5078	67.9164	20.5078	68.2233	20.5078	67.9436	20.5078	68.0974	20.5078	68.0038
23.4375	72.9706	23.4375	72.8393	23.4375	73.0837	23.4375	72.6944	23.4375	73.1741	23.4375	72.5405	23.4375	73.2373	23.4375	72.382	23.4375	73.2697	23.4375	72.223	23.4375	73.2684	23.4375	72.0673	23.4375	73.2319	23.4375	71.9184	23.4375	73.1601	23.4375	71.7796	23.4375	73.0551	23.4375	71.6538	23.4375	72.9204	23.4375	71.5437	23.4375	72.7615	23.4375	71.4519	23.4375	72.5853	23.4375	71.3805	23.4375	72.3992	23.4375	71.3314	23.4375	72.2113	23.4375	71.3063	23.4375	72.0289	23.4375	71.3066	23.4375	71.8585	23.4375	71.3333	23.4375	71.7056	23.4375	71.3869	23.4375	71.5743	23.4375	71.4675
26.3672	75.0677	26.3672	74.9269	26.3672	75.1925	26.3672	74.7749	26.3672	75.2967	26.3672	74.6162	26.3672	75.3755	26.3672	74.4554	26.3672	75.425	26.3672	74.2965	26.3672	75.4419	26.3672	74.1433	26.3672	75.424	26.3672	73.9994	26.3672	75.3707	26.3672	73.868	26.3672	75.2831	26.3672	73.752	26.3672	75.164	26.3672	73.6539	26.3672	75.0182	26.3672	73.576	26.3672	74.852	26.3672	73.5202	26.3672	74.6726	26.3672	73.4881	26.3672	74.4877	26.3672	73.4807	26.3672	74.3046	26.3672	73.4989	26.3672	74.1301	26.3672	73.5431	26.3672	73.9699	26.3672	73.6133	26.3672	73.8284	26.3672	73.7088
29.2969	76.8629	29.2969	76.7077	29.2969	77.0054	29.2969	76.5448	29.2969	77.1301	29.2969	76.379	29.2969	77.2321	29.2969	76.2148	29.2969	77.307	29.2969	76.0564	29.2969	77.3508	29.2969	75.9078	29.2969	77.3606	29.2969	75.7725	29.2969	77.3349	29.2969	75.6536	29.2969	77.2738	29.2969	75.5538	29.2969	77.179	29.2969	75.4755	29.2969	77.0544	29.2969	75.4204	29.2969	76.9052	29.2969	75.3898	29.2969	76.7379	29.2969	75.3846	29.2969	76.5597	29.2969	75.4051	29.2969	76.3778	29.2969	75.4512	29.2969	76.1991	29.2969	75.5223	29.2969	76.0294	29.2969	75.6175	29.2969	75.8735	29.2969	75.7353
32.2266	78.6199	32.2266	78.4502	32.2266	78.7801	32.2266	78.2759	32.2266	78.9253	32.2266	78.1022	32.2266	79.0501	32.2266	77.9336	32.2266	79.1496	32.2266	77.7744	32.2266	79.219	32.2266	77.6285	32.2266	79.2546	32.2266	77.4993	32.2266	79.254	32.2266	77.3898	32.2266	79.2159	32.2266	77.3026	32.2266	79.1413	32.2266	77.2396	32.2266	79.0328	32.2266	77.2022	32.2266	78.8948	32.2266	77.1914	32.2266	78.7335	32.2266	77.2074	32.2266	78.5558	32.2266	77.25	32.2266	78.3692	32.2266	77.3188	32.2266	78.1811	32.2266	77.4125	32.2266	77.998	32.2266	77.5297	32.2266	77.8255	32.2266	77.6683
35.1563	80.1378	35.1563	79.9549	35.1563	80.3136	35.1563	79.7705	35.1563	80.4768	35.1563	79.5896	35.1563	80.6216	35.1563	79.4171	35.1563	80.7426	35.1563	79.2571	35.1563	80.8344	35.1563	79.1136	35.1563	80.8926	35.1563	78.9901	35.1563	80.9139	35.1563	78.8893	35.1563	80.8963	35.1563	78.8136	35.1563	80.8398	35.1563	78.7647	35.1563	80.7461	35.1563	78.7436	35.1563	80.619	35.1563	78.7509	35.1563	80.464	35.1563	78.7863	35.1563	80.2879	35.1563	78.8493	35.1563	80.0983	35.1563	78.9388	35.1563	79.9028	35.1563	79.0531	35.1563	79.7085	35.1563	79.1902	35.1563	79.5217	35.1563	79.3475
38.0859	81.5352	38.0859	81.3405	38.0859	81.7252	38.0859	81.1468	38.0859	81.9044	38.0859	80.9592	38.0859	82.0667	38.0859	80.7828	38.0859	82.2062	38.0859	80.6218	38.0859	82.317	38.0859	80.4803	38.0859	82.3941	38.0859	80.3616	38.0859	82.4334	38.0859	80.2683	38.0859	82.4321	38.0859	80.2025	38.0859	82.3896	38.0859	80.1655	38.0859	82.3068	38.0859	80.1582	38.0859	82.1872	38.0859	80.1805	38.0859	82.0359	38.0859	80.2319	38.0859	81.8598	38.0859	80.3114	38.0859	81.6664	38.0859	80.4175	38.0859	81.4639	38.0859	80.5481	38.0859	81.2599	38.0859	80.7011	38.0859	81.0611	38.0859	80.8733
41.0156	82.7288	41.0156	82.5259	41.0156	82.9285	41.0156	82.3259	41.0156	83.1187	41.0156	82.134	41.0156	83.2932	41.0156	81.9555	41.0156	83.4453	41.0156	81.7948	41.0156	83.5689	41.0156	81.6558	41.0156	83.6585	41.0156	81.5418	41.0156	83.7095	41.0156	81.4552	41.0156	83.7189	41.0156	81.3979	41.0156	83.6853	41.0156	81.3709	41.0156	83.6096	41.0156	81.3746	41.0156	83.4949	41.0156	81.4085	41.0156	83.3464	41.0156	81.4717	41.0156	83.1709	41.0156	81.5627	41.0156	82.9763	41.0156	81.6798	41.0156	82.7709	41.0156	81.8207	41.0156	82.5624	41.0156	81.9828	41.0156	82.3578	41.0156	82.1631
43.9453	83.9274	43.9453	83.7146	43.9453	84.1379	43.9453	83.5057	43.9453	84.3397	43.9453	83.3066	43.9453	84.5258	43.9453	83.1224	43.9453	84.6894	43.9453	82.9578	43.9453	84.824	43.9453	82.8166	43.9453	84.9234	43.9453	82.7021	43.9453	84.9827	43.9453	82.6168	43.9453	84.9982	43.9453	82.5622	43.9453	84.9683	43.9453	82.5392	43.9453	84.8937	43.9453	82.5479	43.9453	84.7773	43.9453	82.5876	43.9453	84.6245	43.9453	82.6572	43.9453	84.4423	43.9453	82.7551	43.9453	84.2394	43.9453	82.8794	43.9453	84.0244	43.9453	83.0279	43.9453	83.806	43.9453	83.1983	43.9453	83.5916	43.9453	83.3874
46.875	84.8796	46.875	84.6626	46.875	85.0961	46.875	84.4514	46.875	85.3051	46.875	84.2519	46.875	85.4998	46.875	84.0694	46.875	85.6729	46.875	83.9085	46.875	85.8176	46.875	83.7731	46.875	85.9275	46.875	83.6663	46.875	85.9972	46.875	83.5902	46.875	86.023	46.875	83.5462	46.875	86.0028	46.875	83.5345	46.875	85.937	46.875	83.5548	46.875	85.8284	46.875	83.6061	46.875	85.6821	46.875	83.6867	46.875	85.5051	46.875	83.7947	46.875	85.3059	46.875	83.9279	46.875	85.0931	46.875	84.0839	46.875	84.8754	46.875	84.2601	46.875	84.6601	46.875	84.4534
49.8047	85.8012	49.8047	85.5783	49.8047	86.0238	49.8047	85.362	49.8047	86.2392	49.8047	85.1583	49.8047	86.4399	49.8047	84.9727	49.8047	86.6186	49.8047	84.8102	49.8047	86.7681	49.8047	84.6745	49.8047	86.8817	49.8047	84.5689	49.8047	86.954	49.8047	84.4953	49.8047	86.981	49.8047	84.4548	49.8047	86.9605	49.8047	84.4475	49.8047	86.8931	49.8047	84.4725	49.8047	86.7818	49.8047	84.5285	49.8047	86.632	49.8047	84.6133	49.8047	86.4513	49.8047	84.7248	49.8047	86.2485	49.8047	84.8606	49.8047	86.0329	49.8047	85.0182	49.8047	85.8131	49.8047	85.1953	49.8047	85.5966	49.8047	85.3892
52.7344	86.5665	52.7344	86.3415	52.7344	86.7923	52.7344	86.1239	52.7344	87.0114	52.7344	85.9202	52.7344	87.2163	52.7344	85.7357	52.7344	87.3995	52.7344	85.5754	52.7344	87.5535	52.7344	85.4431	52.7344	87.6715	52.7344	85.3416	52.7344	87.7476	52.7344	85.2729	52.7344	87.7776	52.7344	85.2375	52.7344	87.7594	52.7344	85.2353	52.7344	87.6934	52.7344	85.2651	52.7344	87.5825	52.7344	85.3251	52.7344	87.4326	52.7344	85.4131	52.7344	87.2513	52.7344	85.5267	52.7344	87.0479	52.7344	85.6634	52.7344	86.832	52.7344	85.821	52.7344	86.6124	52.7344	85.9974	52.7344	86.3966	52.7344	86.1902
55.6641	87.1745	55.6641	86.9477	55.6641	87.403	55.6641	86.7297	55.6641	87.6256	55.6641	86.5268	55.6641	87.8347	55.6641	86.3447	55.6641	88.0223	55.6641	86.1883	55.6641	88.1806	55.6641	86.0612	55.6641	88.3027	55.6641	85.9661	55.6641	88.3825	55.6641	85.9044	55.6641	88.4156	55.6641	85.8765	55.6641	88.3997	55.6641	85.8815	55.6641	88.3352	55.6641	85.9178	55.6641	88.2252	55.6641	85.9831	55.6641	88.0758	55.6641	86.0748	55.6641	87.895	55.6641	86.1902	55.6641	87.6926	55.6641	86.327	55.6641	87.4783	55.6641	86.483	55.6641	87.2612	55.6641	86.6566	55.6641	87.0486	55.6641	86.8459
58.5938	87.7118	58.5938	87.4803	58.5938	87.9454	58.5938	87.2583	58.5938	88.1734	58.5938	87.0524	58.5938	88.3876	58.5938	86.8686	58.5938	88.5798	58.5938	86.7118	58.5938	88.7422	58.5938	86.5857	58.5938	88.8674	58.5938	86.4929	58.5938	88.9491	58.5938	86.4346	58.5938	88.9827	58.5938	86.4106	58.5938	88.9658	58.5938	86.4199	58.5938	88.899	58.5938	86.4603	58.5938	88.7857	58.5938	86.529	58.5938	88.6321	58.5938	86.6231	58.5938	88.4471	58.5938	86.7397	58.5938	88.2408	58.5938	86.8765	58.5938	88.0237	58.5938	87.0315	58.5938	87.8052	58.5938	87.2034	58.5938	87.5926	58.5938	87.391
61.5234	88.1813	61.5234	87.9438	61.5234	88.4205	61.5234	87.7156	61.5234	88.6534	61.5234	87.5035	61.5234	88.8719	61.5234	87.3136	61.5234	89.0674	61.5234	87.151	61.5234	89.2319	61.5234	87.0195	61.5234	89.3578	61.5234	86.9217	61.5234	89.4385	61.5234	86.859	61.5234	89.4692	61.5234	86.8311	61.5234	89.4475	61.5234	86.8368	61.5234	89.3738	61.5234	86.8739	61.5234	89.2517	61.5234	86.9395	61.5234	89.0878	61.5234	87.0308	61.5234	88.8916	61.5234	87.1448	61.5234	88.6742	61.5234	87.2795	61.5234	88.4469	61.5234	87.4333	61.5234	88.2197	61.5234	87.6054	61.5234	88.0007	61.5234	87.7949
64.4531	88.577	64.4531	88.3365	64.4531	88.8204	64.4531	88.1064	64.4531	89.0583	64.4531	87.8939	64.4531	89.2823	64.4531	87.7048	64.4531	89.4836	64.4531	87.5443	64.4531	89.6538	64.4531	87.4159	64.4531	89.7849	64.4531	87.3221	64.4531	89.8702	64.4531	87.2637	64.4531	89.9045	64.4531	87.2402	64.4531	89.8851	64.4531	87.25	64.4531	89.8124	64.4531	87.2906	64.4531	89.6899	64.4531	87.3591	64.4531	89.5246	64.4531	87.4524	64.4531	89.3262	64.4531	87.5679	64.4531	89.1062	64.4531	87.7033	64.4531	88.8763	64.4531	87.8575	64.4531	88.647	64.4531	88.0297	64.4531	88.4264	64.4531	88.2198
67.3828	88.7497	67.3828	88.5002	67.3828	89.003	67.3828	88.2627	67.3828	89.2514	67.3828	88.0445	67.3828	89.486	67.3828	87.8521	67.3828	89.6975	67.3828	87.6907	67.3828	89.8772	67.3828	87.564	67.3828	90.0167	67.3828	87.4742	67.3828	90.1091	67.3828	87.4218	67.3828	90.1489	67.3828	87.4059	67.3828	90.1333	67.3828	87.4243	67.3828	90.0625	67.3828	87.474	67.3828	89.9402	67.3828	87.5514	67.3828	89.7736	67.3828	87.6531	67.3828	89.5727	67.3828	87.7759	67.3828	89.3493	67.3828	87.9178	67.3828	89.1157	67.3828	88.0773	67.3828	88.8827	67.3828	88.2541	67.3828	88.6584	67.3828	88.448
70.3125	89.0235	70.3125	88.7705	70.3125	89.2801	70.3125	88.5296	70.3125	89.5314	70.3125	88.3086	70.3125	89.7682	70.3125	88.1143	70.3125	89.9814	70.3125	87.9524	70.3125	90.1619	70.3125	87.8266	70.3125	90.3015	70.3125	87.7394	70.3125	90.3933	70.3125	87.6912	70.3125	90.4318	70.3125	87.6807	70.3125	90.4145	70.3125	87.7053	70.3125	90.3418	70.3125	87.7612	70.3125	90.2177	70.3125	87.8445	70.3125	90.0498	70.3125	87.9509	70.3125	89.8487	70.3125	88.0769	70.3125	89.6266	70.3125	88.2199	70.3125	89.3957	70.3125	88.3785	70.3125	89.1668	70.3125	88.5525	70.3125	88.9475	70.3125	88.7422
73.2422	89.3844	73.2422	89.1306	73.2422	89.6415	73.2422	88.8887	73.2422	89.8929	73.2422	88.6665	73.2422	90.1294	73.2422	88.4709	73.2422	90.3417	73.2422	88.3074	73.2422	90.5207	73.2422	88.1801	73.2422	90.6579	73.2422	88.0913	73.2422	90.7462	73.2422	88.0412	73.2422	90.7801	73.2422	88.0285	73.2422	90.7568	73.2422	88.0505	73.2422	90.677	73.2422	88.1032	73.2422	90.5449	73.2422	88.1824	73.2422	90.3687	73.2422	88.2839	73.2422	90.1596	73.2422	88.4041	73.2422	89.9308	73.2422	88.5407	73.2422	89.6954	73.2422	88.6925	73.2422	89.4646	73.2422	88.8601	73.2422	89.2462	73.2422	89.0444
76.1719	89.5614	76.1719	89.3068	76.1719	89.8205	76.1719	89.0652	76.1719	90.0746	76.1719	88.8446	76.1719	90.3144	76.1719	88.652	76.1719	90.5302	76.1719	88.4928	76.1719	90.7127	76.1719	88.3708	76.1719	90.8531	76.1719	88.2878	76.1719	90.944	76.1719	88.2438	76.1719	90.9796	76.1719	88.2368	76.1719	90.9571	76.1719	88.2636	76.1719	90.8768	76.1719	88.32	76.1719	90.7434	76.1719	88.4012	76.1719	90.5652	76.1719	88.503	76.1719	90.354	76.1719	88.6217	76.1719	90.1236	76.1719	88.7551	76.1719	89.8878	76.1719	88.9027	76.1719	89.6581	76.1719	89.0653	76.1719	89.4425	76.1719	89.2448
79.1016	89.6721	79.1016	89.4153	79.1016	89.9349	79.1016	89.1734	79.1016	90.194	79.1016	88.9545	79.1016	90.4395	79.1016	88.7655	79.1016	90.6616	79.1016	88.6116	79.1016	90.8504	79.1016	88.4962	79.1016	90.9967	79.1016	88.4208	79.1016	91.0927	79.1016	88.3846	79.1016	91.1324	79.1016	88.3853	79.1016	91.1127	79.1016	88.4189	79.1016	91.034	79.1016	88.4808	79.1016	90.901	79.1016	88.5661	79.1016	90.7223	79.1016	88.6702	79.1016	90.5102	79.1016	88.7897	79.1016	90.279	79.1016	88.9225	79.1016	90.043	79.1016	89.0682	79.1016	89.8141	79.1016	89.2283	79.1016	89.6002	79.1016	89.405
82.0313	89.7581	82.0313	89.4904	82.0313	90.0313	82.0313	89.2381	82.0313	90.2999	82.0313	89.01	82.0313	90.5533	82.0313	88.8138	82.0313	90.7812	82.0313	88.6552	82.0313	90.9735	82.0313	88.5381	82.0313	91.121	82.0313	88.4637	82.0313	91.2156	82.0313	88.4311	82.0313	91.2516	82.0313	88.4373	82.0313	91.2261	82.0313	88.4776	82.0313	91.1401	82.0313	88.5466	82.0313	90.9987	82.0313	88.6386	82.0313	90.8117	82.0313	88.7483	82.0313	90.5924	82.0313	88.8717	82.0313	90.3558	82.0313	89.0062	82.0313	90.117	82.0313	89.1518	82.0313	89.8878	82.0313	89.3099	82.0313	89.6758	82.0313	89.4835
84.9609	89.7689	84.9609	89.4952	84.9609	90.0484	84.9609	89.2376	84.9609	90.3232	84.9609	89.0052	84.9609	90.5824	84.9609	88.8062	84.9609	90.8153	84.9609	88.6464	84.9609	91.0117	84.9609	88.5296	84.9609	91.1619	84.9609	88.457	84.9609	91.258	84.9609	88.4271	84.9609	91.2937	84.9609	88.4365	84.9609	91.2661	84.9609	88.4799	84.9609	91.1762	84.9609	88.5514	84.9609	91.0291	84.9609	88.6448	84.9609	90.8351	84.9609	88.7546	84.9609	90.6079	84.9609	88.8768	84.9609	90.3638	84.9609	89.0091	84.9609	90.1185	84.9609	89.1517	84.9609	89.8849	84.9609	89.307	84.9609	89.6708	84.9609	89.4788
87.8906	89.7799	87.8906	89.5019	87.8906	90.0641	87.8906	89.2407	87.8906	90.3434	87.8906	89.0062	87.8906	90.6068	87.8906	88.8067	87.8906	90.8434	87.8906	88.6486	87.8906	91.0428	87.8906	88.5356	87.8906	91.1953	87.8906	88.4688	87.8906	91.2927	87.8906	88.4462	87.8906	91.3292	87.8906	88.4639	87.8906	91.3016	87.8906	88.5157	87.8906	91.2111	87.8906	88.5952	87.8906	91.0634	87.8906	88.6954	87.8906	90.8689	87.8906	88.8105	87.8906	90.6421	87.8906	88.936	87.8906	90.3996	87.8906	89.0696	87.8906	90.1573	87.8906	89.2114	87.8906	89.9279	87.8906	89.364	87.8906	89.7187	87.8906	89.5316
90.8203	89.7305	90.8203	89.4452	90.8203	90.0212	90.8203	89.1764	90.8203	90.3056	90.8203	88.9345	90.8203	90.5724	90.8203	88.7286	90.8203	90.8106	90.8203	88.5657	90.8203	91.0092	90.8203	88.45	90.8203	91.1587	90.8203	88.3826	90.8203	91.2507	90.8203	88.3615	90.8203	91.2791	90.8203	88.3819	90.8203	91.241	90.8203	88.4371	90.8203	91.1381	90.8203	88.5196	90.8203	90.9768	90.8203	88.6217	90.8203	90.7687	90.8203	88.7367	90.8203	90.53	90.8203	88.8595	90.8203	90.2789	90.8203	88.9877	90.8203	90.0325	90.8203	89.1216	90.8203	89.8041	90.8203	89.2645	90.8203	89.6005	90.8203	89.4221
93.75	89.796	93.75	89.4971	93.75	90.0998	93.75	89.2149	93.75	90.3964	93.75	88.9605	93.75	90.6742	93.75	88.7437	93.75	90.9217	93.75	88.5721	93.75	91.1281	93.75	88.4504	93.75	91.2834	93.75	88.3799	93.75	91.3792	93.75	88.3585	93.75	91.409	93.75	88.381	93.75	91.3699	93.75	88.4401	93.75	91.2633	93.75	88.5276	93.75	91.0954	93.75	88.6352	93.75	90.8783	93.75	88.7556	93.75	90.6286	93.75	88.8837	93.75	90.3652	93.75	89.0168	93.75	90.1065	93.75	89.1555	93.75	89.8668	93.75	89.3036	93.75	89.6536	93.75	89.4674
96.6797	89.7122	96.6797	89.413	96.6797	90.0158	96.6797	89.13	96.6797	90.312	96.6797	88.8744	96.6797	90.5888	96.6797	88.656	96.6797	90.8348	96.6797	88.4824	96.6797	91.0391	96.6797	88.3582	96.6797	91.1915	96.6797	88.2845	96.6797	91.2832	96.6797	88.2591	96.6797	91.3077	96.6797	88.2767	96.6797	91.2616	96.6797	88.3298	96.6797	91.1461	96.6797	88.4103	96.6797	90.968	96.6797	88.5098	96.6797	90.7395	96.6797	88.6213	96.6797	90.478	96.6797	88.7399	96.6797	90.2037	96.6797	88.8634	96.6797	89.9363	96.6797	88.9931	96.6797	89.6911	96.6797	89.1336	96.6797	89.4762	96.6797	89.2921
102.539	89.525	102.539	89.2045	102.539	89.8495	102.539	88.9012	102.539	90.1648	102.539	88.6279	102.539	90.4584	102.539	88.3962	102.539	90.718	102.539	88.215	102.539	90.9323	102.539	88.0897	102.539	91.0909	102.539	88.0213	102.539	91.1847	102.539	88.0068	102.539	91.2071	102.539	88.0393	102.539	91.155	102.539	88.1095	102.539	91.0301	102.539	88.2074	102.539	90.8399	102.539	88.3228	102.539	90.5981	102.539	88.4474	102.539	90.3239	102.539	88.5753	102.539	90.0395	102.539	88.704	102.539	89.7661	102.539	88.8348	102.539	89.5194	102.539	88.973	102.539	89.3069	102.539	89.1272
105.469	89.4696	105.469	89.1342	105.469	89.8062	105.469	88.8137	105.469	90.1306	105.469	88.5215	105.469	90.4302	105.469	88.2701	105.469	90.6932	105.469	88.0698	105.469	90.9081	105.469	87.9272	105.469	91.0647	105.469	87.8441	105.469	91.1539	105.469	87.8183	105.469	91.1691	105.469	87.8428	105.469	91.1072	105.469	87.9083	105.469	90.9698	105.469	88.0039	105.469	90.7645	105.469	88.1191	105.469	90.5057	105.469	88.2449	105.469	90.2133	105.469	88.3751	105.469	89.9107	105.469	88.5069	105.469	89.6203	105.469	88.6416	105.469	89.3589	105.469	88.7848	105.469	89.1345	105.469	88.9457
108.398	89.6094	108.398	89.2724	108.398	89.9459	108.398	88.9485	108.398	90.269	108.398	88.6515	108.398	90.5661	108.398	88.3939	108.398	90.8255	108.398	88.1864	108.398	91.0361	108.398	88.0361	108.398	91.1877	108.398	87.9458	108.398	91.2712	108.398	87.9135	108.398	91.2801	108.398	87.9328	108.398	91.2113	108.398	87.9944	108.398	91.0665	108.398	88.0874	108.398	90.8537	108.398	88.201	108.398	90.5878	108.398	88.3258	108.398	90.2893	108.398	88.4552	108.398	89.9824	108.398	88.5861	108.398	89.6897	108.398	88.7194	108.398	89.4283	108.398	88.8606	108.398	89.2054	108.398	89.0191
