"SPL Horizontal"																																																																							
"On-Axis"		"10°"		"-10°"		"20°"		"-20°"		"30°"		"-30°"		"40°"		"-40°"		"50°"		"-50°"		"60°"		"-60°"		"70°"		"-70°"		"80°"		"-80°"		"90°"		"-90°"		"100°"		"-100°"		"110°"		"-110°"		"120°"		"-120°"		"130°"		"-130°"		"140°"		"-140°"		"150°"		"-150°"		"160°"		"-160°"		"170°"		"-170°"		"180°"	
"Frequency [Hz]"	"Sound Pessure Level [dB]  / [2.83V 1m] "	"Frequency [Hz]"	"Sound Pessure Level [dB]  / [2.83V 1m] "	"Frequency [Hz]"	"Sound Pessure Level [dB]  / [2.83V 1m] "	"Frequency [Hz]"	"Sound Pessure Level [dB]  / [2.83V 1m] "	"Frequency [Hz]"	"Sound Pessure Level [dB]  / [2.83V 1m] "	"Frequency [Hz]"	"Sound Pessure Level [dB]  / [2.83V 1m] "	"Frequency [Hz]"	"Sound Pessure Level [dB]  / [2.83V 1m] "	"Frequency [Hz]"	"Sound Pessure Level [dB]  / [2.83V 1m] "	"Frequency [Hz]"	"Sound Pessure Level [dB]  / [2.83V 1m] "	"Frequency [Hz]"	"Sound Pessure Level [dB]  / [2.83V 1m] "	"Frequency [Hz]"	"Sound Pessure Level [dB]  / [2.83V 1m] "	"Frequency [Hz]"	"Sound Pessure Level [dB]  / [2.83V 1m] "	"Frequency [Hz]"	"Sound Pessure Level [dB]  / [2.83V 1m] "	"Frequency [Hz]"	"Sound Pessure Level [dB]  / [2.83V 1m] "	"Frequency [Hz]"	"Sound Pessure Level [dB]  / [2.83V 1m] "	"Frequency [Hz]"	"Sound Pessure Level [dB]  / [2.83V 1m] "	"Frequency [Hz]"	"Sound Pessure Level [dB]  / [2.83V 1m] "	"Frequency [Hz]"	"Sound Pessure Level [dB]  / [2.83V 1m] "	"Frequency [Hz]"	"Sound Pessure Level [dB]  / [2.83V 1m] "	"Frequency [Hz]"	"Sound Pessure Level [dB]  / [2.83V 1m] "	"Frequency [Hz]"	"Sound Pessure Level [dB]  / [2.83V 1m] "	"Frequency [Hz]"	"Sound Pessure Level [dB]  / [2.83V 1m] "	"Frequency [Hz]"	"Sound Pessure Level [dB]  / [2.83V 1m] "	"Frequency [Hz]"	"Sound Pessure Level [dB]  / [2.83V 1m] "	"Frequency [Hz]"	"Sound Pessure Level [dB]  / [2.83V 1m] "	"Frequency [Hz]"	"Sound Pessure Level [dB]  / [2.83V 1m] "	"Frequency [Hz]"	"Sound Pessure Level [dB]  / [2.83V 1m] "	"Frequency [Hz]"	"Sound Pessure Level [dB]  / [2.83V 1m] "	"Frequency [Hz]"	"Sound Pessure Level [dB]  / [2.83V 1m] "	"Frequency [Hz]"	"Sound Pessure Level [dB]  / [2.83V 1m] "	"Frequency [Hz]"	"Sound Pessure Level [dB]  / [2.83V 1m] "	"Frequency [Hz]"	"Sound Pessure Level [dB]  / [2.83V 1m] "	"Frequency [Hz]"	"Sound Pessure Level [dB]  / [2.83V 1m] "	"Frequency [Hz]"	"Sound Pessure Level [dB]  / [2.83V 1m] "	"Frequency [Hz]"	"Sound Pessure Level [dB]  / [2.83V 1m] "	"Frequency [Hz]"	"Sound Pessure Level [dB]  / [2.83V 1m] "
20.5078	69.9045	20.5078	69.8887	20.5078	69.8962	20.5078	69.8487	20.5078	69.8639	20.5078	69.785	20.5078	69.8081	20.5078	69.6982	20.5078	69.7296	20.5078	69.5898	20.5078	69.6298	20.5078	69.4615	20.5078	69.5102	20.5078	69.3162	20.5078	69.3733	20.5078	69.1574	20.5078	69.2221	20.5078	68.9896	20.5078	69.0605	20.5078	68.8182	20.5078	68.8933	20.5078	68.6493	20.5078	68.7258	20.5078	68.4892	20.5078	68.5638	20.5078	68.3441	20.5078	68.4133	20.5078	68.2197	20.5078	68.2801	20.5078	68.1207	20.5078	68.169	20.5078	68.0504	20.5078	68.0842	20.5078	68.0111	20.5078	68.0285	20.5078	68.0038
23.4375	72.9706	23.4375	72.9586	23.4375	72.9621	23.4375	72.9263	23.4375	72.9332	23.4375	72.8742	23.4375	72.8845	23.4375	72.8031	23.4375	72.8169	23.4375	72.7146	23.4375	72.7318	23.4375	72.6107	23.4375	72.6309	23.4375	72.4939	23.4375	72.5166	23.4375	72.3674	23.4375	72.3919	23.4375	72.2353	23.4375	72.2604	23.4375	72.1017	23.4375	72.1263	23.4375	71.9714	23.4375	71.9942	23.4375	71.8488	23.4375	71.8688	23.4375	71.7382	23.4375	71.7547	23.4375	71.6433	23.4375	71.6559	23.4375	71.567	23.4375	71.5758	23.4375	71.5114	23.4375	71.5169	23.4375	71.4779	23.4375	71.4805	23.4375	71.4675
26.3672	75.0677	26.3672	75.0541	26.3672	75.0622	26.3672	75.0216	26.3672	75.0377	26.3672	74.9706	26.3672	74.9948	26.3672	74.9023	26.3672	74.9344	26.3672	74.818	26.3672	74.8577	26.3672	74.7199	26.3672	74.7667	26.3672	74.6105	26.3672	74.6636	26.3672	74.4932	26.3672	74.5512	26.3672	74.3716	26.3672	74.4329	26.3672	74.25	26.3672	74.3125	26.3672	74.1326	26.3672	74.194	26.3672	74.0238	26.3672	74.0815	26.3672	73.9271	26.3672	73.9789	26.3672	73.8458	26.3672	73.8896	26.3672	73.7821	26.3672	73.8163	26.3672	73.7376	26.3672	73.761	26.3672	73.713	26.3672	73.7249	26.3672	73.7088
29.2969	76.8629	29.2969	76.8504	29.2969	76.8585	29.2969	76.8214	29.2969	76.8375	29.2969	76.7763	29.2969	76.8003	29.2969	76.7164	29.2969	76.7479	29.2969	76.643	29.2969	76.6815	29.2969	76.5583	29.2969	76.603	29.2969	76.4648	29.2969	76.5147	29.2969	76.3654	29.2969	76.4191	29.2969	76.2637	29.2969	76.3194	29.2969	76.1631	29.2969	76.219	29.2969	76.0674	29.2969	76.1214	29.2969	75.9798	29.2969	76.0298	29.2969	75.9031	29.2969	75.9474	29.2969	75.8395	29.2969	75.8765	29.2969	75.7904	29.2969	75.8189	29.2969	75.7565	29.2969	75.7759	29.2969	75.7381	29.2969	75.7479	29.2969	75.7353
32.2266	78.6199	32.2266	78.608	32.2266	78.6172	32.2266	78.5815	32.2266	78.5999	32.2266	78.5413	32.2266	78.5685	32.2266	78.4882	32.2266	78.5238	32.2266	78.4239	32.2266	78.4671	32.2266	78.3501	32.2266	78.4	32.2266	78.2694	32.2266	78.3246	32.2266	78.1843	32.2266	78.2433	32.2266	78.0979	32.2266	78.1587	32.2266	78.0134	32.2266	78.0739	32.2266	77.9338	32.2266	77.9917	32.2266	77.8616	32.2266	77.915	32.2266	77.7993	32.2266	77.8462	32.2266	77.7482	32.2266	77.7872	32.2266	77.7093	32.2266	77.7393	32.2266	77.683	32.2266	77.7033	32.2266	77.6694	32.2266	77.6796	32.2266	77.6683
35.1563	80.1378	35.1563	80.127	35.1563	80.1357	35.1563	80.1036	35.1563	80.1209	35.1563	80.0683	35.1563	80.0939	35.1563	80.022	35.1563	80.0554	35.1563	79.9663	35.1563	80.0067	35.1563	79.9029	35.1563	79.9492	35.1563	79.834	35.1563	79.885	35.1563	79.762	35.1563	79.8162	35.1563	79.6898	35.1563	79.7453	35.1563	79.6198	35.1563	79.6748	35.1563	79.5547	35.1563	79.6071	35.1563	79.4966	35.1563	79.5446	35.1563	79.447	35.1563	79.4892	35.1563	79.4071	35.1563	79.442	35.1563	79.3773	35.1563	79.4041	35.1563	79.3575	35.1563	79.3757	35.1563	79.3477	35.1563	79.3568	35.1563	79.3475
38.0859	81.5352	38.0859	81.5252	38.0859	81.534	38.0859	81.5041	38.0859	81.5216	38.0859	81.4725	38.0859	81.4984	38.0859	81.4316	38.0859	81.4653	38.0859	81.3825	38.0859	81.4234	38.0859	81.3271	38.0859	81.3743	38.0859	81.2674	38.0859	81.3196	38.0859	81.2057	38.0859	81.2614	38.0859	81.1443	38.0859	81.2018	38.0859	81.0857	38.0859	81.143	38.0859	81.0319	38.0859	81.0871	38.0859	80.9847	38.0859	81.0359	38.0859	80.9453	38.0859	80.9906	38.0859	80.9143	38.0859	80.9523	38.0859	80.892	38.0859	80.9215	38.0859	80.8779	38.0859	80.898	38.0859	80.8718	38.0859	80.882	38.0859	80.8733
41.0156	82.7288	41.0156	82.7212	41.0156	82.7263	41.0156	82.7036	41.0156	82.7137	41.0156	82.6768	41.0156	82.6916	41.0156	82.6417	41.0156	82.6607	41.0156	82.5995	41.0156	82.6222	41.0156	82.5519	41.0156	82.5774	41.0156	82.5008	41.0156	82.5282	41.0156	82.4482	41.0156	82.4765	41.0156	82.3963	41.0156	82.4242	41.0156	82.347	41.0156	82.3735	41.0156	82.3019	41.0156	82.3261	41.0156	82.2626	41.0156	82.2836	41.0156	82.2297	41.0156	82.2471	41.0156	82.2036	41.0156	82.2172	41.0156	82.1843	41.0156	82.1942	41.0156	82.1713	41.0156	82.1777	41.0156	82.1644	41.0156	82.1675	41.0156	82.1631
43.9453	83.9274	43.9453	83.9222	43.9453	83.9228	43.9453	83.9076	43.9453	83.9086	43.9453	83.884	43.9453	83.8854	43.9453	83.8523	43.9453	83.8539	43.9453	83.8137	43.9453	83.8154	43.9453	83.7697	43.9453	83.7713	43.9453	83.7222	43.9453	83.7233	43.9453	83.6729	43.9453	83.6734	43.9453	83.6237	43.9453	83.6235	43.9453	83.5766	43.9453	83.5755	43.9453	83.5331	43.9453	83.5311	43.9453	83.4945	43.9453	83.4917	43.9453	83.4616	43.9453	83.4584	43.9453	83.4348	43.9453	83.4315	43.9453	83.4143	43.9453	83.4112	43.9453	83.3997	43.9453	83.3974	43.9453	83.3908	43.9453	83.3895	43.9453	83.3874
46.875	84.8796	46.875	84.8742	46.875	84.8766	46.875	84.8609	46.875	84.8654	46.875	84.8401	46.875	84.8463	46.875	84.8128	46.875	84.8201	46.875	84.7803	46.875	84.7878	46.875	84.744	46.875	84.7507	46.875	84.7055	46.875	84.7105	46.875	84.6664	46.875	84.6689	46.875	84.6283	46.875	84.6277	46.875	84.5926	46.875	84.5886	46.875	84.5604	46.875	84.5532	46.875	84.5325	46.875	84.5226	46.875	84.5091	46.875	84.4976	46.875	84.4902	46.875	84.4784	46.875	84.4755	46.875	84.465	46.875	84.4647	46.875	84.4567	46.875	84.4574	46.875	84.4531	46.875	84.4534
49.8047	85.8012	49.8047	85.7951	49.8047	85.7989	49.8047	85.7811	49.8047	85.7885	49.8047	85.7598	49.8047	85.7702	49.8047	85.732	49.8047	85.7451	49.8047	85.699	49.8047	85.714	49.8047	85.6624	49.8047	85.6784	49.8047	85.6238	49.8047	85.6398	49.8047	85.5848	49.8047	85.6	49.8047	85.5472	49.8047	85.5607	49.8047	85.5124	49.8047	85.5235	49.8047	85.4814	49.8047	85.4898	49.8047	85.455	49.8047	85.4607	49.8047	85.4335	49.8047	85.4367	49.8047	85.4168	49.8047	85.418	49.8047	85.4045	49.8047	85.4045	49.8047	85.3961	49.8047	85.3955	49.8047	85.3911	49.8047	85.3906	49.8047	85.3892
52.7344	86.5665	52.7344	86.5623	52.7344	86.563	52.7344	86.5506	52.7344	86.5519	52.7344	86.532	52.7344	86.5335	52.7344	86.5074	52.7344	86.5087	52.7344	86.478	52.7344	86.4786	52.7344	86.4452	52.7344	86.4445	52.7344	86.4105	52.7344	86.408	52.7344	86.3755	52.7344	86.3708	52.7344	86.3416	52.7344	86.3344	52.7344	86.3101	52.7344	86.3005	52.7344	86.282	52.7344	86.2703	52.7344	86.2578	52.7344	86.2446	52.7344	86.2377	52.7344	86.2241	52.7344	86.2217	52.7344	86.2087	52.7344	86.2093	52.7344	86.1981	52.7344	86.2001	52.7344	86.192	52.7344	86.1938	52.7344	86.1895	52.7344	86.1902
55.6641	87.1745	55.6641	87.1706	55.6641	87.1711	55.6641	87.1598	55.6641	87.1606	55.6641	87.1427	55.6641	87.1432	55.6641	87.1202	55.6641	87.1198	55.6641	87.0937	55.6641	87.0914	55.6641	87.0645	55.6641	87.0595	55.6641	87.0341	55.6641	87.0254	55.6641	87.0039	55.6641	86.991	55.6641	86.9752	55.6641	86.9578	55.6641	86.949	55.6641	86.9274	55.6641	86.926	55.6641	86.9009	55.6641	86.9064	55.6641	86.8792	55.6641	86.8902	55.6641	86.8627	55.6641	86.8771	55.6641	86.8513	55.6641	86.8664	55.6641	86.8447	55.6641	86.8579	55.6641	86.8421	55.6641	86.851	55.6641	86.8427	55.6641	86.8459
58.5938	87.7118	58.5938	87.7062	58.5938	87.71	58.5938	87.6935	58.5938	87.7008	58.5938	87.6746	58.5938	87.6847	58.5938	87.6505	58.5938	87.6623	58.5938	87.6226	58.5938	87.6349	58.5938	87.5923	58.5938	87.6037	58.5938	87.5612	58.5938	87.5704	58.5938	87.531	58.5938	87.5367	58.5938	87.5028	58.5938	87.5042	58.5938	87.4778	58.5938	87.4743	58.5938	87.4564	58.5938	87.4483	58.5938	87.4389	58.5938	87.4269	58.5938	87.425	58.5938	87.4106	58.5938	87.4142	58.5938	87.3993	58.5938	87.4059	58.5938	87.3924	58.5938	87.3995	58.5938	87.3892	58.5938	87.3945	58.5938	87.389	58.5938	87.391
61.5234	88.1813	61.5234	88.1737	61.5234	88.1806	61.5234	88.1584	61.5234	88.1716	61.5234	88.1361	61.5234	88.1548	61.5234	88.108	61.5234	88.1309	61.5234	88.0755	61.5234	88.101	61.5234	88.0402	61.5234	88.0666	61.5234	88.0039	61.5234	88.0293	61.5234	87.9681	61.5234	87.9908	61.5234	87.9343	61.5234	87.9529	61.5234	87.9038	61.5234	87.9172	61.5234	87.8771	61.5234	87.8851	61.5234	87.8547	61.5234	87.8575	61.5234	87.8365	61.5234	87.8351	61.5234	87.8222	61.5234	87.8179	61.5234	87.8112	61.5234	87.8059	61.5234	87.8031	61.5234	87.7985	61.5234	87.7977	61.5234	87.795	61.5234	87.7949
64.4531	88.577	64.4531	88.5658	64.4531	88.5806	64.4531	88.5473	64.4531	88.5764	64.4531	88.5226	64.4531	88.5646	64.4531	88.4928	64.4531	88.5459	64.4531	88.4596	64.4531	88.5212	64.4531	88.4244	64.4531	88.4919	64.4531	88.389	64.4531	88.4593	64.4531	88.355	64.4531	88.425	64.4531	88.3237	64.4531	88.3905	64.4531	88.2962	64.4531	88.3573	64.4531	88.2731	64.4531	88.3266	64.4531	88.2545	64.4531	88.2994	64.4531	88.2403	64.4531	88.2761	64.4531	88.23	64.4531	88.2571	64.4531	88.2232	64.4531	88.2423	64.4531	88.2194	64.4531	88.2314	64.4531	88.2183	64.4531	88.224	64.4531	88.2198
67.3828	88.7497	67.3828	88.7326	67.3828	88.7597	67.3828	88.7088	67.3828	88.7622	67.3828	88.6794	67.3828	88.7576	67.3828	88.6458	67.3828	88.7464	67.3828	88.6095	67.3828	88.7294	67.3828	88.5725	67.3828	88.7079	67.3828	88.5366	67.3828	88.683	67.3828	88.5036	67.3828	88.6562	67.3828	88.4749	67.3828	88.6285	67.3828	88.4517	67.3828	88.6012	67.3828	88.4345	67.3828	88.5751	67.3828	88.4233	67.3828	88.5508	67.3828	88.4179	67.3828	88.5287	67.3828	88.4174	67.3828	88.5087	67.3828	88.421	67.3828	88.4909	67.3828	88.4277	67.3828	88.475	67.3828	88.4369	67.3828	88.4607	67.3828	88.448
70.3125	89.0235	70.3125	89.009	70.3125	89.0306	70.3125	88.9876	70.3125	89.0302	70.3125	88.9603	70.3125	89.0227	70.3125	88.9283	70.3125	89.009	70.3125	88.8934	70.3125	88.9901	70.3125	88.8574	70.3125	88.9673	70.3125	88.8225	70.3125	88.9422	70.3125	88.7903	70.3125	88.9161	70.3125	88.7625	70.3125	88.8904	70.3125	88.7403	70.3125	88.8659	70.3125	88.7243	70.3125	88.8436	70.3125	88.7144	70.3125	88.8236	70.3125	88.7103	70.3125	88.8061	70.3125	88.711	70.3125	88.7907	70.3125	88.7156	70.3125	88.777	70.3125	88.7229	70.3125	88.7646	70.3125	88.732	70.3125	88.7531	70.3125	88.7422
73.2422	89.3844	73.2422	89.3669	73.2422	89.3937	73.2422	89.3417	73.2422	89.3948	73.2422	89.3097	73.2422	89.3882	73.2422	89.2723	73.2422	89.3747	73.2422	89.2312	73.2422	89.3555	73.2422	89.1884	73.2422	89.332	73.2422	89.1462	73.2422	89.3055	73.2422	89.1066	73.2422	89.2774	73.2422	89.0716	73.2422	89.2489	73.2422	89.0426	73.2422	89.2209	73.2422	89.0208	73.2422	89.1942	73.2422	89.0064	73.2422	89.1689	73.2422	88.9993	73.2422	89.1452	73.2422	88.999	73.2422	89.1228	73.2422	89.0044	73.2422	89.1016	73.2422	89.0146	73.2422	89.0815	73.2422	89.0282	73.2422	89.0623	73.2422	89.0444
76.1719	89.5614	76.1719	89.5492	76.1719	89.5659	76.1719	89.5294	76.1719	89.5626	76.1719	89.5029	76.1719	89.5523	76.1719	89.471	76.1719	89.5357	76.1719	89.4352	76.1719	89.5144	76.1719	89.3975	76.1719	89.4896	76.1719	89.3596	76.1719	89.4629	76.1719	89.3237	76.1719	89.4356	76.1719	89.2915	76.1719	89.409	76.1719	89.2642	76.1719	89.384	76.1719	89.2428	76.1719	89.3608	76.1719	89.2278	76.1719	89.3398	76.1719	89.219	76.1719	89.3208	76.1719	89.216	76.1719	89.3033	76.1719	89.218	76.1719	89.2872	76.1719	89.2241	76.1719	89.272	76.1719	89.2333	76.1719	89.2578	76.1719	89.2448
79.1016	89.6721	79.1016	89.664	79.1016	89.673	79.1016	89.6488	79.1016	89.6667	79.1016	89.6275	79.1016	89.6539	79.1016	89.6013	79.1016	89.6357	79.1016	89.5716	79.1016	89.6133	79.1016	89.5402	79.1016	89.5883	79.1016	89.509	79.1016	89.5623	79.1016	89.4796	79.1016	89.5367	79.1016	89.4535	79.1016	89.5128	79.1016	89.4317	79.1016	89.4915	79.1016	89.4148	79.1016	89.4731	79.1016	89.4028	79.1016	89.4577	79.1016	89.3956	79.1016	89.4451	79.1016	89.3924	79.1016	89.4346	79.1016	89.3925	79.1016	89.4258	79.1016	89.3951	79.1016	89.4181	79.1016	89.3995	79.1016	89.4112	79.1016	89.405
82.0313	89.7581	82.0313	89.7528	82.0313	89.7555	82.0313	89.74	82.0313	89.7452	82.0313	89.7205	82.0313	89.7279	82.0313	89.6957	82.0313	89.7047	82.0313	89.6672	82.0313	89.6773	82.0313	89.6369	82.0313	89.6473	82.0313	89.6065	82.0313	89.6166	82.0313	89.5779	82.0313	89.5872	82.0313	89.5524	82.0313	89.5604	82.0313	89.531	82.0313	89.5375	82.0313	89.5141	82.0313	89.5191	82.0313	89.5017	82.0313	89.5052	82.0313	89.4933	82.0313	89.4956	82.0313	89.4882	82.0313	89.4895	82.0313	89.4854	82.0313	89.486	82.0313	89.4841	82.0313	89.4843	82.0313	89.4836	82.0313	89.4837	82.0313	89.4835
84.9609	89.7689	84.9609	89.7559	84.9609	89.774	84.9609	89.7357	84.9609	89.7711	84.9609	89.7094	84.9609	89.7606	84.9609	89.6785	84.9609	89.7433	84.9609	89.6451	84.9609	89.7206	84.9609	89.6109	84.9609	89.694	84.9609	89.5781	84.9609	89.6652	84.9609	89.5484	84.9609	89.6359	84.9609	89.5229	84.9609	89.6076	84.9609	89.5026	84.9609	89.5814	84.9609	89.4876	84.9609	89.5582	84.9609	89.4776	84.9609	89.5384	84.9609	89.4718	84.9609	89.522	84.9609	89.4695	84.9609	89.5088	84.9609	89.4697	84.9609	89.4984	84.9609	89.4716	84.9609	89.4903	84.9609	89.4747	84.9609	89.4839	84.9609	89.4788
87.8906	89.7799	87.8906	89.7653	87.8906	89.7868	87.8906	89.7435	87.8906	89.7858	87.8906	89.7158	87.8906	89.7775	87.8906	89.6838	87.8906	89.7628	87.8906	89.6496	87.8906	89.7431	87.8906	89.6152	87.8906	89.72	87.8906	89.5829	87.8906	89.6953	87.8906	89.5544	87.8906	89.6705	87.8906	89.5313	87.8906	89.6469	87.8906	89.5142	87.8906	89.6256	87.8906	89.5033	87.8906	89.607	87.8906	89.4982	87.8906	89.5912	87.8906	89.498	87.8906	89.5779	87.8906	89.5015	87.8906	89.5668	87.8906	89.5075	87.8906	89.5571	87.8906	89.515	87.8906	89.5483	87.8906	89.5232	87.8906	89.5399	87.8906	89.5316
90.8203	89.7305	90.8203	89.7177	90.8203	89.734	90.8203	89.6961	90.8203	89.7283	90.8203	89.6668	90.8203	89.7142	90.8203	89.6316	90.8203	89.6931	90.8203	89.5925	90.8203	89.6666	90.8203	89.5521	90.8203	89.6368	90.8203	89.5128	90.8203	89.6057	90.8203	89.477	90.8203	89.5753	90.8203	89.4464	90.8203	89.5471	90.8203	89.4224	90.8203	89.5222	90.8203	89.4056	90.8203	89.501	90.8203	89.3956	90.8203	89.4836	90.8203	89.3918	90.8203	89.4695	90.8203	89.3931	90.8203	89.458	90.8203	89.3979	90.8203	89.4482	90.8203	89.405	90.8203	89.4393	90.8203	89.4134	90.8203	89.4307	90.8203	89.4221
93.75	89.796	93.75	89.7902	93.75	89.7923	93.75	89.775	93.75	89.7793	93.75	89.7515	93.75	89.7581	93.75	89.7212	93.75	89.7303	93.75	89.6859	93.75	89.6977	93.75	89.6479	93.75	89.6628	93.75	89.6096	93.75	89.6276	93.75	89.5732	93.75	89.5944	93.75	89.5405	93.75	89.5648	93.75	89.5129	93.75	89.5398	93.75	89.4912	93.75	89.5199	93.75	89.4755	93.75	89.5049	93.75	89.4656	93.75	89.494	93.75	89.4605	93.75	89.4862	93.75	89.4592	93.75	89.4804	93.75	89.4605	93.75	89.4757	93.75	89.4636	93.75	89.4715	93.75	89.4674
96.6797	89.7122	96.6797	89.6994	96.6797	89.7144	96.6797	89.6767	96.6797	89.706	96.6797	89.6454	96.6797	89.6878	96.6797	89.6075	96.6797	89.661	96.6797	89.5652	96.6797	89.6273	96.6797	89.5211	96.6797	89.5889	96.6797	89.4776	96.6797	89.548	96.6797	89.437	96.6797	89.5066	96.6797	89.401	96.6797	89.4666	96.6797	89.3705	96.6797	89.4296	96.6797	89.3459	96.6797	89.3967	96.6797	89.327	96.6797	89.3684	96.6797	89.3131	96.6797	89.345	96.6797	89.3033	96.6797	89.3263	96.6797	89.2967	96.6797	89.3122	96.6797	89.2928	96.6797	89.3021	96.6797	89.2912	96.6797	89.2955	96.6797	89.2921
102.539	89.525	102.539	89.5165	102.539	89.5215	102.539	89.4964	102.539	89.5062	102.539	89.4661	102.539	89.4803	102.539	89.4278	102.539	89.4456	102.539	89.3841	102.539	89.4045	102.539	89.3378	102.539	89.3599	102.539	89.2919	102.539	89.3147	102.539	89.2493	102.539	89.2716	102.539	89.212	102.539	89.233	102.539	89.1815	102.539	89.2003	102.539	89.1584	102.539	89.1745	102.539	89.1424	102.539	89.1555	102.539	89.1326	102.539	89.1427	102.539	89.1276	102.539	89.1348	102.539	89.1258	102.539	89.1306	102.539	89.1258	102.539	89.1287	102.539	89.1265	102.539	89.1278	102.539	89.1272
105.469	89.4696	105.469	89.4546	105.469	89.4707	105.469	89.4265	105.469	89.4579	105.469	89.3867	105.469	89.4323	105.469	89.3377	105.469	89.3956	105.469	89.2823	105.469	89.3504	105.469	89.2239	105.469	89.2995	105.469	89.1657	105.469	89.246	105.469	89.1109	105.469	89.1931	105.469	89.062	105.469	89.1432	105.469	89.0209	105.469	89.0986	105.469	88.9885	105.469	89.0603	105.469	88.965	105.469	89.029	105.469	88.9494	105.469	89.0043	105.469	88.9407	105.469	88.9855	105.469	88.9373	105.469	88.9712	105.469	88.9377	105.469	88.9605	105.469	88.9408	105.469	88.9522	105.469	88.9457
108.398	89.6094	108.398	89.592	108.398	89.6119	108.398	89.5605	108.398	89.5996	108.398	89.5167	108.398	89.5734	108.398	89.463	108.398	89.5351	108.398	89.4024	108.398	89.4872	108.398	89.3383	108.398	89.4326	108.398	89.2741	108.398	89.3745	108.398	89.2133	108.398	89.316	108.398	89.1586	108.398	89.2601	108.398	89.1119	108.398	89.209	108.398	89.0745	108.398	89.1643	108.398	89.0464	108.398	89.1266	108.398	89.0272	108.398	89.096	108.398	89.0157	108.398	89.0718	108.398	89.0104	108.398	89.053	108.398	89.01	108.398	89.0386	108.398	89.0131	108.398	89.0275	108.398	89.0191
