"SPL Vertical"																																																																							
"On-Axis"		"10°"		"-10°"		"20°"		"-20°"		"30°"		"-30°"		"40°"		"-40°"		"50°"		"-50°"		"60°"		"-60°"		"70°"		"-70°"		"80°"		"-80°"		"90°"		"-90°"		"100°"		"-100°"		"110°"		"-110°"		"120°"		"-120°"		"130°"		"-130°"		"140°"		"-140°"		"150°"		"-150°"		"160°"		"-160°"		"170°"		"-170°"		"180°"	
"Frequency [Hz]"	"Sound Pessure Level [dB]  / [2.83V 1m] "	"Frequency [Hz]"	"Sound Pessure Level [dB]  / [2.83V 1m] "	"Frequency [Hz]"	"Sound Pessure Level [dB]  / [2.83V 1m] "	"Frequency [Hz]"	"Sound Pessure Level [dB]  / [2.83V 1m] "	"Frequency [Hz]"	"Sound Pessure Level [dB]  / [2.83V 1m] "	"Frequency [Hz]"	"Sound Pessure Level [dB]  / [2.83V 1m] "	"Frequency [Hz]"	"Sound Pessure Level [dB]  / [2.83V 1m] "	"Frequency [Hz]"	"Sound Pessure Level [dB]  / [2.83V 1m] "	"Frequency [Hz]"	"Sound Pessure Level [dB]  / [2.83V 1m] "	"Frequency [Hz]"	"Sound Pessure Level [dB]  / [2.83V 1m] "	"Frequency [Hz]"	"Sound Pessure Level [dB]  / [2.83V 1m] "	"Frequency [Hz]"	"Sound Pessure Level [dB]  / [2.83V 1m] "	"Frequency [Hz]"	"Sound Pessure Level [dB]  / [2.83V 1m] "	"Frequency [Hz]"	"Sound Pessure Level [dB]  / [2.83V 1m] "	"Frequency [Hz]"	"Sound Pessure Level [dB]  / [2.83V 1m] "	"Frequency [Hz]"	"Sound Pessure Level [dB]  / [2.83V 1m] "	"Frequency [Hz]"	"Sound Pessure Level [dB]  / [2.83V 1m] "	"Frequency [Hz]"	"Sound Pessure Level [dB]  / [2.83V 1m] "	"Frequency [Hz]"	"Sound Pessure Level [dB]  / [2.83V 1m] "	"Frequency [Hz]"	"Sound Pessure Level [dB]  / [2.83V 1m] "	"Frequency [Hz]"	"Sound Pessure Level [dB]  / [2.83V 1m] "	"Frequency [Hz]"	"Sound Pessure Level [dB]  / [2.83V 1m] "	"Frequency [Hz]"	"Sound Pessure Level [dB]  / [2.83V 1m] "	"Frequency [Hz]"	"Sound Pessure Level [dB]  / [2.83V 1m] "	"Frequency [Hz]"	"Sound Pessure Level [dB]  / [2.83V 1m] "	"Frequency [Hz]"	"Sound Pessure Level [dB]  / [2.83V 1m] "	"Frequency [Hz]"	"Sound Pessure Level [dB]  / [2.83V 1m] "	"Frequency [Hz]"	"Sound Pessure Level [dB]  / [2.83V 1m] "	"Frequency [Hz]"	"Sound Pessure Level [dB]  / [2.83V 1m] "	"Frequency [Hz]"	"Sound Pessure Level [dB]  / [2.83V 1m] "	"Frequency [Hz]"	"Sound Pessure Level [dB]  / [2.83V 1m] "	"Frequency [Hz]"	"Sound Pessure Level [dB]  / [2.83V 1m] "	"Frequency [Hz]"	"Sound Pessure Level [dB]  / [2.83V 1m] "	"Frequency [Hz]"	"Sound Pessure Level [dB]  / [2.83V 1m] "	"Frequency [Hz]"	"Sound Pessure Level [dB]  / [2.83V 1m] "	"Frequency [Hz]"	"Sound Pessure Level [dB]  / [2.83V 1m] "
20.5078	50.5048	20.5078	50.5447	20.5078	50.4324	20.5078	50.5587	20.5078	50.3224	20.5078	50.5535	20.5078	50.1709	20.5078	50.5359	20.5078	49.9765	20.5078	50.5118	20.5078	49.741	20.5078	50.4859	20.5078	49.47	20.5078	50.461	20.5078	49.1745	20.5078	50.4377	20.5078	48.8713	20.5078	50.4142	20.5078	48.5832	20.5078	50.3869	20.5078	48.3369	20.5078	50.3499	20.5078	48.1597	20.5078	50.2964	20.5078	48.0744	20.5078	50.2186	20.5078	48.0932	20.5078	50.1089	20.5078	48.2141	20.5078	49.9607	20.5078	48.4203	20.5078	49.7701	20.5078	48.6849	20.5078	49.5372	20.5078	48.977	20.5078	49.2683
21.9727	53.962	21.9727	54.055	21.9727	53.8385	21.9727	54.1213	21.9727	53.6819	21.9727	54.1651	21.9727	53.4909	21.9727	54.1906	21.9727	53.2664	21.9727	54.2016	21.9727	53.0123	21.9727	54.2013	21.9727	52.7361	21.9727	54.1917	21.9727	52.4505	21.9727	54.1736	21.9727	52.1733	21.9727	54.1463	21.9727	51.9267	21.9727	54.1079	21.9727	51.7351	21.9727	54.0551	21.9727	51.621	21.9727	53.9837	21.9727	51.5997	21.9727	53.8886	21.9727	51.675	21.9727	53.7646	21.9727	51.8381	21.9727	53.6071	21.9727	52.0695	21.9727	53.413	21.9727	52.3436	21.9727	53.1824	21.9727	52.6344	21.9727	52.9195
23.4375	53.2617	23.4375	53.3719	23.4375	53.1219	23.4375	53.4547	23.4375	52.9514	23.4375	53.5127	23.4375	52.7506	23.4375	53.5489	23.4375	52.5219	23.4375	53.5665	23.4375	52.2703	23.4375	53.5679	23.4375	52.0044	23.4375	53.5553	23.4375	51.7368	23.4375	53.5299	23.4375	51.4843	23.4375	53.4921	23.4375	51.267	23.4375	53.4412	23.4375	51.1056	23.4375	53.3755	23.4375	51.0182	23.4375	53.2925	23.4375	51.0154	23.4375	53.1888	23.4375	51.0985	23.4375	53.0606	23.4375	51.2577	23.4375	52.9046	23.4375	51.4751	23.4375	52.7182	23.4375	51.7286	23.4375	52.5016	23.4375	51.9958	23.4375	52.258
24.9023	50.7271	24.9023	50.7559	24.9023	50.6699	24.9023	50.7582	24.9023	50.5829	24.9023	50.7367	24.9023	50.4658	24.9023	50.6946	24.9023	50.3196	24.9023	50.6352	24.9023	50.1471	24.9023	50.5619	24.9023	49.9534	24.9023	50.4782	24.9023	49.7465	24.9023	50.3871	24.9023	49.5372	24.9023	50.2912	24.9023	49.3391	24.9023	50.1928	24.9023	49.1664	24.9023	50.093	24.9023	49.0325	24.9023	49.9923	24.9023	48.9472	24.9023	49.8905	24.9023	48.915	24.9023	49.7863	24.9023	48.9336	24.9023	49.6782	24.9023	48.9953	24.9023	49.5649	24.9023	49.0887	24.9023	49.4461	24.9023	49.2017	24.9023	49.3235
26.3672	45.9474	26.3672	45.6813	26.3672	46.1585	26.3672	45.3668	26.3672	46.3091	26.3672	45.0122	26.3672	46.3956	26.3672	44.6272	26.3672	46.4157	26.3672	44.2229	26.3672	46.3698	26.3672	43.8117	26.3672	46.2604	26.3672	43.4073	26.3672	46.0933	26.3672	43.0246	26.3672	45.8769	26.3672	42.6792	26.3672	45.6222	26.3672	42.3874	26.3672	45.3411	26.3672	42.1649	26.3672	45.0447	26.3672	42.0252	26.3672	44.7417	26.3672	41.9767	26.3672	44.437	26.3672	42.0212	26.3672	44.1318	26.3672	42.1517	26.3672	43.825	26.3672	42.3542	26.3672	43.5154	26.3672	42.6097	26.3672	43.2047	26.3672	42.8989
27.832	33.2013	27.832	30.9856	27.832	34.7817	27.832	27.7613	27.832	35.9088	27.832	22.6964	27.832	36.6824	27.832	17.3311	27.832	37.1617	27.832	22.897	27.832	37.3848	27.832	27.5223	27.832	37.3766	27.832	30.3877	27.832	37.1534	27.832	32.2791	27.832	36.7229	27.832	33.5447	27.832	36.0808	27.832	34.3514	27.832	35.204	27.832	34.7842	27.832	34.0396	27.832	34.8834	27.832	32.4851	27.832	34.6587	27.832	30.3436	27.832	34.0923	27.832	27.1906	27.832	33.133	27.832	21.7861	27.832	31.6757	27.832	5.82351	27.832	29.5065	27.832	19.837	27.832	26.1223
29.2969	39.9387	29.2969	40.1076	29.2969	39.9197	29.2969	40.4194	29.2969	40.0321	29.2969	40.8426	29.2969	40.24	29.2969	41.332	29.2969	40.503	29.2969	41.8412	29.2969	40.7843	29.2969	42.3306	29.2969	41.0538	29.2969	42.7706	29.2969	41.2876	29.2969	43.1405	29.2969	41.4658	29.2969	43.4267	29.2969	41.5727	29.2969	43.6202	29.2969	41.5984	29.2969	43.7156	29.2969	41.5428	29.2969	43.7096	29.2969	41.4216	29.2969	43.6011	29.2969	41.271	29.2969	43.3922	29.2969	41.1471	29.2969	43.0903	29.2969	41.1147	29.2969	42.7113	29.2969	41.2228	29.2969	42.2841	29.2969	41.4808	29.2969	41.8542
30.7617	45.7124	30.7617	45.4508	30.7617	45.9703	30.7617	45.1992	30.7617	46.2121	30.7617	44.9709	30.7617	46.4273	30.7617	44.7767	30.7617	46.6071	30.7617	44.6227	30.7617	46.744	30.7617	44.5085	30.7617	46.8309	30.7617	44.427	30.7617	46.8605	30.7617	44.3665	30.7617	46.8247	30.7617	44.3124	30.7617	46.7156	30.7617	44.2502	30.7617	46.5264	30.7617	44.1684	30.7617	46.2532	30.7617	44.0601	30.7617	45.8986	30.7617	43.9254	30.7617	45.4745	30.7617	43.7734	30.7617	45.0054	30.7617	43.6246	30.7617	44.5301	30.7617	43.5111	30.7617	44.0981	30.7617	43.473	30.7617	43.7592	30.7617	43.5485
32.2266	46.511	32.2266	45.9579	32.2266	46.9501	32.2266	45.2911	32.2266	47.278	32.2266	44.5151	32.2266	47.4988	32.2266	43.6413	32.2266	47.6177	32.2266	42.6916	32.2266	47.6394	32.2266	41.7013	32.2266	47.5681	32.2266	40.7219	32.2266	47.4067	32.2266	39.8165	32.2266	47.156	32.2266	39.0469	32.2266	46.815	32.2266	38.4531	32.2266	46.3805	32.2266	38.0401	32.2266	45.8477	32.2266	37.7861	32.2266	45.2119	32.2266	37.6674	32.2266	44.4699	32.2266	37.6833	32.2266	43.6238	32.2266	37.8633	32.2266	42.6854	32.2266	38.2511	32.2266	41.6818	32.2266	38.8704	32.2266	40.6618	32.2266	39.6968
33.6914	44.2501	33.6914	43.6444	33.6914	44.7026	33.6914	42.9174	33.6914	44.988	33.6914	42.1312	33.6914	45.1012	33.6914	41.39	33.6914	45.0411	33.6914	40.8322	33.6914	44.8074	33.6914	40.5766	33.6914	44.3993	33.6914	40.6461	33.6914	43.8145	33.6914	40.9495	33.6914	43.0482	33.6914	41.3465	33.6914	42.0933	33.6914	41.7155	33.6914	40.9419	33.6914	41.9759	33.6914	39.5927	33.6914	42.0805	33.6914	38.0763	33.6914	42.0013	33.6914	36.5245	33.6914	41.7194	33.6914	35.2963	33.6914	41.2194	33.6914	34.9448	33.6914	40.4867	33.6914	35.6473	33.6914	39.5116	33.6914	36.9354	33.6914	38.3036
35.1563	47.9567	35.1563	48.436	35.1563	47.4793	35.1563	48.9158	35.1563	47.0053	35.1563	49.3918	35.1563	46.5412	35.1563	49.8557	35.1563	46.1032	35.1563	50.2961	35.1563	45.7209	35.1563	50.7004	35.1563	45.4357	35.1563	51.0562	35.1563	45.2916	35.1563	51.3526	35.1563	45.3195	35.1563	51.5812	35.1563	45.523	35.1563	51.7356	35.1563	45.877	35.1563	51.8118	35.1563	46.3401	35.1563	51.8072	35.1563	46.8702	35.1563	51.7212	35.1563	47.4343	35.1563	51.5547	35.1563	48.0099	35.1563	51.31	35.1563	48.5818	35.1563	50.9916	35.1563	49.1385	35.1563	50.606	35.1563	49.6688	35.1563	50.1617
36.6211	54.7476	36.6211	55.0385	36.6211	54.4722	36.6211	55.3339	36.6211	54.2244	36.6211	55.6236	36.6211	54.0166	36.6211	55.8986	36.6211	53.8601	36.6211	56.1508	36.6211	53.7637	36.6211	56.3732	36.6211	53.7313	36.6211	56.56	36.6211	53.7612	36.6211	56.7065	36.6211	53.8461	36.6211	56.8095	36.6211	53.9748	36.6211	56.8668	36.6211	54.135	36.6211	56.8775	36.6211	54.3159	36.6211	56.8419	36.6211	54.5102	36.6211	56.7617	36.6211	54.7141	36.6211	56.6399	36.6211	54.9267	36.6211	56.481	36.6211	55.1481	36.6211	56.2911	36.6211	55.3779	36.6211	56.0776	36.6211	55.6132	36.6211	55.8489
38.0859	59.496	38.0859	59.6174	38.0859	59.3741	38.0859	59.7347	38.0859	59.2551	38.0859	59.8446	38.0859	59.1425	38.0859	59.9441	38.0859	59.0394	38.0859	60.0305	38.0859	58.9491	38.0859	60.1016	38.0859	58.8747	38.0859	60.1561	38.0859	58.8191	38.0859	60.1931	38.0859	58.7856	38.0859	60.2122	38.0859	58.7769	38.0859	60.2138	38.0859	58.7953	38.0859	60.1982	38.0859	58.8417	38.0859	60.1663	38.0859	58.9153	38.0859	60.1185	38.0859	59.0132	38.0859	60.0554	38.0859	59.1303	38.0859	59.9773	38.0859	59.2601	38.0859	59.8848	38.0859	59.3957	38.0859	59.7784	38.0859	59.5307	38.0859	59.6595
39.5508	62.2389	39.5508	62.2819	39.5508	62.1901	39.5508	62.3177	39.5508	62.1369	39.5508	62.3452	39.5508	62.0804	39.5508	62.3632	39.5508	62.0218	39.5508	62.371	39.5508	61.9625	39.5508	62.3682	39.5508	61.904	39.5508	62.3552	39.5508	61.8483	39.5508	62.3326	39.5508	61.7976	39.5508	62.3017	39.5508	61.7548	39.5508	62.2639	39.5508	61.7225	39.5508	62.2211	39.5508	61.703	39.5508	62.175	39.5508	61.6975	39.5508	62.127	39.5508	61.706	39.5508	62.0785	39.5508	61.7272	39.5508	62.0299	39.5508	61.7586	39.5508	61.9817	39.5508	61.7974	39.5508	61.934	39.5508	61.8408	39.5508	61.8868
41.0156	63.8901	41.0156	63.8811	41.0156	63.8873	41.0156	63.8604	41.0156	63.8727	41.0156	63.8283	41.0156	63.8464	41.0156	63.7856	41.0156	63.809	41.0156	63.7331	41.0156	63.7613	41.0156	63.6723	41.0156	63.7045	41.0156	63.6049	41.0156	63.6405	41.0156	63.5332	41.0156	63.5719	41.0156	63.4599	41.0156	63.5015	41.0156	63.3878	41.0156	63.4323	41.0156	63.3198	41.0156	63.3673	41.0156	63.2588	41.0156	63.3085	41.0156	63.207	41.0156	63.2573	41.0156	63.1661	41.0156	63.2141	41.0156	63.1371	41.0156	63.1787	41.0156	63.1198	41.0156	63.1508	41.0156	63.1138	41.0156	63.1303	41.0156	63.1177
42.4805	64.7225	42.4805	64.672	42.4805	64.7556	42.4805	64.6054	42.4805	64.7706	42.4805	64.5244	42.4805	64.7669	42.4805	64.4308	42.4805	64.7447	42.4805	64.3273	42.4805	64.7046	42.4805	64.2166	42.4805	64.6479	42.4805	64.1021	42.4805	64.5766	42.4805	63.9873	42.4805	64.4933	42.4805	63.8764	42.4805	64.4009	42.4805	63.7734	42.4805	64.3028	42.4805	63.6824	42.4805	64.2019	42.4805	63.6073	42.4805	64.1007	42.4805	63.5513	42.4805	64.0015	42.4805	63.5166	42.4805	63.9057	42.4805	63.5042	42.4805	63.8149	42.4805	63.514	42.4805	63.7309	42.4805	63.5443	42.4805	63.6559	42.4805	63.5926
43.9453	64.946	43.9453	64.8671	43.9453	65.0023	43.9453	64.7676	43.9453	65.0345	43.9453	64.6501	43.9453	65.0422	43.9453	64.5177	43.9453	65.0254	43.9453	64.3743	43.9453	64.9849	43.9453	64.224	43.9453	64.9226	43.9453	64.0713	43.9453	64.8409	43.9453	63.9213	43.9453	64.7427	43.9453	63.7791	43.9453	64.6314	43.9453	63.6498	43.9453	64.5105	43.9453	63.5388	43.9453	64.383	43.9453	63.4505	43.9453	64.2517	43.9453	63.3889	43.9453	64.1188	43.9453	63.3567	43.9453	63.9864	43.9453	63.3551	43.9453	63.8569	43.9453	63.3836	43.9453	63.7333	43.9453	63.4398	43.9453	63.6194	43.9453	63.52
45.4102	64.5659	45.4102	64.4634	45.4102	64.6408	45.4102	64.3361	45.4102	64.6866	45.4102	64.1876	45.4102	64.7023	45.4102	64.0219	45.4102	64.6881	45.4102	63.8439	45.4102	64.645	45.4102	63.6589	45.4102	64.5751	45.4102	63.4725	45.4102	64.4813	45.4102	63.2907	45.4102	64.3668	45.4102	63.1195	45.4102	64.2356	45.4102	62.965	45.4102	64.0911	45.4102	62.833	45.4102	63.9368	45.4102	62.729	45.4102	63.7756	45.4102	62.6575	45.4102	63.6102	45.4102	62.622	45.4102	63.4432	45.4102	62.6243	45.4102	63.2782	45.4102	62.6638	45.4102	63.1193	45.4102	62.7382	45.4102	62.9722	45.4102	62.843
46.875	63.9084	46.875	63.7932	46.875	63.9948	46.875	63.6525	46.875	64.0501	46.875	63.4905	46.875	64.0731	46.875	63.3123	46.875	64.0637	46.875	63.1234	46.875	64.0231	46.875	62.9297	46.875	63.9535	46.875	62.7369	46.875	63.8577	46.875	62.5512	46.875	63.7396	46.875	62.3781	46.875	63.6029	46.875	62.2233	46.875	63.4515	46.875	62.0919	46.875	63.2888	46.875	61.9889	46.875	63.1179	46.875	61.9186	46.875	62.9415	46.875	61.8844	46.875	62.7629	46.875	61.8883	46.875	62.586	46.875	61.9306	46.875	62.4157	46.875	62.0094	46.875	62.2582	46.875	62.1205
48.3398	63.3032	48.3398	63.2046	48.3398	63.3768	48.3398	63.0846	48.3398	63.4229	48.3398	62.9476	48.3398	63.4402	48.3398	62.7986	48.3398	63.4288	48.3398	62.6428	48.3398	63.3897	48.3398	62.4851	48.3398	63.3252	48.3398	62.3304	48.3398	63.2383	48.3398	62.1827	48.3398	63.1325	48.3398	62.0456	48.3398	63.0114	48.3398	61.9225	48.3398	62.8784	48.3398	61.8162	48.3398	62.7367	48.3398	61.7297	48.3398	62.5888	48.3398	61.6661	48.3398	62.4375	48.3398	61.6282	48.3398	62.286	48.3398	61.6187	48.3398	62.1381	48.3398	61.6392	48.3398	61.999	48.3398	61.69	48.3398	61.8742	48.3398	61.7695
51.2695	63.7698	51.2695	63.7305	51.2695	63.8006	51.2695	63.6852	51.2695	63.821	51.2695	63.6364	51.2695	63.8299	51.2695	63.5866	51.2695	63.8265	51.2695	63.5377	51.2695	63.811	51.2695	63.491	51.2695	63.7841	51.2695	63.4471	51.2695	63.7469	51.2695	63.4057	51.2695	63.7005	51.2695	63.3664	51.2695	63.6464	51.2695	63.3285	51.2695	63.586	51.2695	63.2915	51.2695	63.5208	51.2695	63.2556	51.2695	63.4529	51.2695	63.2214	51.2695	63.3848	51.2695	63.1905	51.2695	63.3194	51.2695	63.1654	51.2695	63.2603	51.2695	63.1487	51.2695	63.2109	51.2695	63.1433	51.2695	63.174	51.2695	63.1514
52.7344	64.8375	52.7344	64.8209	52.7344	64.8514	52.7344	64.8027	52.7344	64.8619	52.7344	64.784	52.7344	64.8682	52.7344	64.7656	52.7344	64.8699	52.7344	64.7479	52.7344	64.867	52.7344	64.731	52.7344	64.8592	52.7344	64.7146	52.7344	64.8466	52.7344	64.6981	52.7344	64.8291	52.7344	64.6808	52.7344	64.8064	52.7344	64.6621	52.7344	64.7787	52.7344	64.6417	52.7344	64.7463	52.7344	64.6199	52.7344	64.7101	52.7344	64.5973	52.7344	64.6719	52.7344	64.5756	52.7344	64.634	52.7344	64.5565	52.7344	64.599	52.7344	64.5423	52.7344	64.5698	52.7344	64.5353	52.7344	64.5488	52.7344	64.5372
54.1992	66.0846	54.1992	66.0727	54.1992	66.0947	54.1992	66.0594	54.1992	66.1023	54.1992	66.0455	54.1992	66.1068	54.1992	66.0312	54.1992	66.1077	54.1992	66.0165	54.1992	66.1046	54.1992	66.0014	54.1992	66.0968	54.1992	65.9855	54.1992	66.0841	54.1992	65.9681	54.1992	66.0659	54.1992	65.9488	54.1992	66.0419	54.1992	65.9273	54.1992	66.0122	54.1992	65.9035	54.1992	65.9776	54.1992	65.8779	54.1992	65.9392	54.1992	65.8514	54.1992	65.8992	54.1992	65.8256	54.1992	65.8605	54.1992	65.8024	54.1992	65.8259	54.1992	65.7843	54.1992	65.7982	54.1992	65.7733	54.1992	65.7797	54.1992	65.7714
55.6641	67.1602	55.6641	67.1467	55.6641	67.1722	55.6641	67.1319	55.6641	67.1819	55.6641	67.1162	55.6641	67.189	55.6641	67.1001	55.6641	67.1928	55.6641	67.0834	55.6641	67.1929	55.6641	67.0662	55.6641	67.1886	55.6641	67.0483	55.6641	67.1794	55.6641	67.0295	55.6641	67.1648	55.6641	67.0094	55.6641	67.1443	55.6641	66.9882	55.6641	67.118	55.6641	66.9661	55.6641	67.0863	55.6641	66.9436	55.6641	67.0504	55.6641	66.9218	55.6641	67.0122	55.6641	66.9018	55.6641	66.9743	55.6641	66.8854	55.6641	66.9392	55.6641	66.8743	55.6641	66.9097	55.6641	66.8703	55.6641	66.8878	55.6641	66.8745
58.5938	68.817	58.5938	68.7941	58.5938	68.8368	58.5938	68.7685	58.5938	68.8528	58.5938	68.7409	58.5938	68.8647	58.5938	68.7119	58.5938	68.8721	58.5938	68.682	58.5938	68.8745	58.5938	68.6516	58.5938	68.8717	58.5938	68.6213	58.5938	68.8634	58.5938	68.5916	58.5938	68.8491	58.5938	68.5628	58.5938	68.8285	58.5938	68.5358	58.5938	68.8017	58.5938	68.5112	58.5938	68.7688	58.5938	68.49	58.5938	68.7306	58.5938	68.4733	58.5938	68.6885	58.5938	68.4623	58.5938	68.6444	58.5938	68.4581	58.5938	68.6005	58.5938	68.4617	58.5938	68.5595	58.5938	68.4739	58.5938	68.5236	58.5938	68.4947
60.0586	69.4572	60.0586	69.4303	60.0586	69.4802	60.0586	69.4001	60.0586	69.4986	60.0586	69.3671	60.0586	69.5122	60.0586	69.3322	60.0586	69.5206	60.0586	69.2961	60.0586	69.5237	60.0586	69.2595	60.0586	69.5212	60.0586	69.2231	60.0586	69.5128	60.0586	69.1878	60.0586	69.4984	60.0586	69.1543	60.0586	69.4775	60.0586	69.1235	60.0586	69.45	60.0586	69.0964	60.0586	69.4159	60.0586	69.0742	60.0586	69.3757	60.0586	69.0582	60.0586	69.3305	60.0586	69.0496	60.0586	69.2822	60.0586	69.0494	60.0586	69.2329	60.0586	69.0586	60.0586	69.1853	60.0586	69.0774	60.0586	69.1421	60.0586	69.1056
62.9883	70.7995	62.9883	70.7755	62.9883	70.8186	62.9883	70.7471	62.9883	70.8326	62.9883	70.715	62.9883	70.8415	62.9883	70.6797	62.9883	70.8452	62.9883	70.6422	62.9883	70.8439	62.9883	70.6033	62.9883	70.8378	62.9883	70.5638	62.9883	70.8268	62.9883	70.5248	62.9883	70.8107	62.9883	70.4872	62.9883	70.7891	62.9883	70.4523	62.9883	70.7618	62.9883	70.4212	62.9883	70.7285	62.9883	70.3953	62.9883	70.6893	62.9883	70.3761	62.9883	70.645	62.9883	70.3649	62.9883	70.5972	62.9883	70.3631	62.9883	70.5479	62.9883	70.3714	62.9883	70.4999	62.9883	70.3901	62.9883	70.456	62.9883	70.4187
64.4531	71.3367	64.4531	71.3166	64.4531	71.3521	64.4531	71.2922	64.4531	71.3626	64.4531	71.2639	64.4531	71.3683	64.4531	71.2323	64.4531	71.3695	64.4531	71.1981	64.4531	71.3662	64.4531	71.1621	64.4531	71.3586	64.4531	71.1251	64.4531	71.3467	64.4531	71.0881	64.4531	71.3305	64.4531	71.0519	64.4531	71.3094	64.4531	71.0177	64.4531	71.2831	64.4531	70.9866	64.4531	71.2513	64.4531	70.9601	64.4531	71.2143	64.4531	70.9395	64.4531	71.1727	64.4531	70.9262	64.4531	71.128	64.4531	70.9215	64.4531	71.0824	64.4531	70.9263	64.4531	71.0383	64.4531	70.9411	64.4531	70.9986	64.4531	70.9656
67.3828	72.8518	67.3828	72.8294	67.3828	72.8681	67.3828	72.8018	67.3828	72.878	67.3828	72.7698	67.3828	72.8813	67.3828	72.7345	67.3828	72.8779	67.3828	72.6974	67.3828	72.8681	67.3828	72.6598	67.3828	72.852	67.3828	72.6233	67.3828	72.8302	67.3828	72.5893	67.3828	72.8034	67.3828	72.5592	67.3828	72.7728	67.3828	72.5341	67.3828	72.7395	67.3828	72.5149	67.3828	72.7053	67.3828	72.5019	67.3828	72.6717	67.3828	72.4952	67.3828	72.6403	67.3828	72.4942	67.3828	72.6119	67.3828	72.4983	67.3828	72.5871	67.3828	72.5064	67.3828	72.5657	67.3828	72.5176	67.3828	72.5473	67.3828	72.5313
68.8477	73.2485	68.8477	73.2238	68.8477	73.2669	68.8477	73.1935	68.8477	73.2785	68.8477	73.1585	68.8477	73.2831	68.8477	73.1203	68.8477	73.2806	68.8477	73.0801	68.8477	73.2713	68.8477	73.0395	68.8477	73.2553	68.8477	73.0001	68.8477	73.2334	68.8477	72.9637	68.8477	73.2061	68.8477	72.9316	68.8477	73.1748	68.8477	72.9051	68.8477	73.1407	68.8477	72.8852	68.8477	73.1054	68.8477	72.8724	68.8477	73.0706	68.8477	72.8665	68.8477	73.0377	68.8477	72.8673	68.8477	73.0076	68.8477	72.8737	68.8477	72.9806	68.8477	72.8846	68.8477	72.9566	68.8477	72.899	68.8477	72.9352	68.8477	72.916
