"SPL Horizontal"																																																																							
"On-Axis"		"10°"		"-10°"		"20°"		"-20°"		"30°"		"-30°"		"40°"		"-40°"		"50°"		"-50°"		"60°"		"-60°"		"70°"		"-70°"		"80°"		"-80°"		"90°"		"-90°"		"100°"		"-100°"		"110°"		"-110°"		"120°"		"-120°"		"130°"		"-130°"		"140°"		"-140°"		"150°"		"-150°"		"160°"		"-160°"		"170°"		"-170°"		"180°"	
"Frequency [Hz]"	"Sound Pessure Level [dB]  / [2.83V 1m] "	"Frequency [Hz]"	"Sound Pessure Level [dB]  / [2.83V 1m] "	"Frequency [Hz]"	"Sound Pessure Level [dB]  / [2.83V 1m] "	"Frequency [Hz]"	"Sound Pessure Level [dB]  / [2.83V 1m] "	"Frequency [Hz]"	"Sound Pessure Level [dB]  / [2.83V 1m] "	"Frequency [Hz]"	"Sound Pessure Level [dB]  / [2.83V 1m] "	"Frequency [Hz]"	"Sound Pessure Level [dB]  / [2.83V 1m] "	"Frequency [Hz]"	"Sound Pessure Level [dB]  / [2.83V 1m] "	"Frequency [Hz]"	"Sound Pessure Level [dB]  / [2.83V 1m] "	"Frequency [Hz]"	"Sound Pessure Level [dB]  / [2.83V 1m] "	"Frequency [Hz]"	"Sound Pessure Level [dB]  / [2.83V 1m] "	"Frequency [Hz]"	"Sound Pessure Level [dB]  / [2.83V 1m] "	"Frequency [Hz]"	"Sound Pessure Level [dB]  / [2.83V 1m] "	"Frequency [Hz]"	"Sound Pessure Level [dB]  / [2.83V 1m] "	"Frequency [Hz]"	"Sound Pessure Level [dB]  / [2.83V 1m] "	"Frequency [Hz]"	"Sound Pessure Level [dB]  / [2.83V 1m] "	"Frequency [Hz]"	"Sound Pessure Level [dB]  / [2.83V 1m] "	"Frequency [Hz]"	"Sound Pessure Level [dB]  / [2.83V 1m] "	"Frequency [Hz]"	"Sound Pessure Level [dB]  / [2.83V 1m] "	"Frequency [Hz]"	"Sound Pessure Level [dB]  / [2.83V 1m] "	"Frequency [Hz]"	"Sound Pessure Level [dB]  / [2.83V 1m] "	"Frequency [Hz]"	"Sound Pessure Level [dB]  / [2.83V 1m] "	"Frequency [Hz]"	"Sound Pessure Level [dB]  / [2.83V 1m] "	"Frequency [Hz]"	"Sound Pessure Level [dB]  / [2.83V 1m] "	"Frequency [Hz]"	"Sound Pessure Level [dB]  / [2.83V 1m] "	"Frequency [Hz]"	"Sound Pessure Level [dB]  / [2.83V 1m] "	"Frequency [Hz]"	"Sound Pessure Level [dB]  / [2.83V 1m] "	"Frequency [Hz]"	"Sound Pessure Level [dB]  / [2.83V 1m] "	"Frequency [Hz]"	"Sound Pessure Level [dB]  / [2.83V 1m] "	"Frequency [Hz]"	"Sound Pessure Level [dB]  / [2.83V 1m] "	"Frequency [Hz]"	"Sound Pessure Level [dB]  / [2.83V 1m] "	"Frequency [Hz]"	"Sound Pessure Level [dB]  / [2.83V 1m] "	"Frequency [Hz]"	"Sound Pessure Level [dB]  / [2.83V 1m] "	"Frequency [Hz]"	"Sound Pessure Level [dB]  / [2.83V 1m] "	"Frequency [Hz]"	"Sound Pessure Level [dB]  / [2.83V 1m] "	"Frequency [Hz]"	"Sound Pessure Level [dB]  / [2.83V 1m] "
20.5078	56.5271	20.5078	56.4976	20.5078	56.5301	20.5078	56.4415	20.5078	56.5073	20.5078	56.359	20.5078	56.4596	20.5078	56.251	20.5078	56.3882	20.5078	56.1191	20.5078	56.2946	20.5078	55.9655	20.5078	56.1803	20.5078	55.7934	20.5078	56.0473	20.5078	55.607	20.5078	55.8976	20.5078	55.4112	20.5078	55.7335	20.5078	55.2119	20.5078	55.5577	20.5078	55.0157	20.5078	55.3734	20.5078	54.8297	20.5078	55.1847	20.5078	54.6611	20.5078	54.9965	20.5078	54.5177	20.5078	54.8154	20.5078	54.4068	20.5078	54.6493	20.5078	54.3357	20.5078	54.5073	20.5078	54.3095	20.5078	54.3985	20.5078	54.3309
21.9727	56.6722	21.9727	56.616	21.9727	56.7038	21.9727	56.5362	21.9727	56.7103	21.9727	56.4336	21.9727	56.6911	21.9727	56.3094	21.9727	56.6463	21.9727	56.1653	21.9727	56.5759	21.9727	56.0033	21.9727	56.4809	21.9727	55.8264	21.9727	56.3626	21.9727	55.6386	21.9727	56.2231	21.9727	55.4452	21.9727	56.0656	21.9727	55.2528	21.9727	55.8935	21.9727	55.0693	21.9727	55.7115	21.9727	54.9031	21.9727	55.5244	21.9727	54.7623	21.9727	55.3377	21.9727	54.6544	21.9727	55.1573	21.9727	54.5846	21.9727	54.9894	21.9727	54.5564	21.9727	54.8404	21.9727	54.5705	21.9727	54.717	21.9727	54.6252
23.4375	57.1992	23.4375	57.1746	23.4375	57.1972	23.4375	57.1233	23.4375	57.1688	23.4375	57.0456	23.4375	57.1144	23.4375	56.942	23.4375	57.0348	23.4375	56.8134	23.4375	56.9308	23.4375	56.6614	23.4375	56.8036	23.4375	56.4881	23.4375	56.6549	23.4375	56.2965	23.4375	56.4867	23.4375	56.0909	23.4375	56.3018	23.4375	55.8768	23.4375	56.1037	23.4375	55.6612	23.4375	55.8973	23.4375	55.4525	23.4375	55.6883	23.4375	55.2598	23.4375	55.4841	23.4375	55.0926	23.4375	55.2929	23.4375	54.9598	23.4375	55.1236	23.4375	54.869	23.4375	54.9851	23.4375	54.8252	23.4375	54.8855	23.4375	54.8309
24.9023	57.5684	24.9023	57.5409	24.9023	57.5628	24.9023	57.4805	24.9023	57.5247	24.9023	57.3871	24.9023	57.4546	24.9023	57.2615	24.9023	57.3533	24.9023	57.1048	24.9023	57.222	24.9023	56.9188	24.9023	57.0623	24.9023	56.7065	24.9023	56.8764	24.9023	56.472	24.9023	56.6671	24.9023	56.2206	24.9023	56.4382	24.9023	55.9591	24.9023	56.1947	24.9023	55.6959	24.9023	55.9425	24.9023	55.4405	24.9023	55.6888	24.9023	55.2035	24.9023	55.4419	24.9023	54.9961	24.9023	55.2114	24.9023	54.8295	24.9023	55.0075	24.9023	54.7135	24.9023	54.8411	24.9023	54.6552	24.9023	54.7219	24.9023	54.6583
26.3672	57.5371	26.3672	57.4955	26.3672	57.5394	26.3672	57.4148	26.3672	57.5027	26.3672	57.2948	26.3672	57.4271	26.3672	57.1361	26.3672	57.3128	26.3672	56.9394	26.3672	57.1599	26.3672	56.7064	26.3672	56.969	26.3672	56.4396	26.3672	56.7412	26.3672	56.143	26.3672	56.4783	26.3672	55.8218	26.3672	56.1836	26.3672	55.4836	26.3672	55.8619	26.3672	55.1379	26.3672	55.5204	26.3672	54.7966	26.3672	55.169	26.3672	54.4739	26.3672	54.8203	26.3672	54.1857	26.3672	54.4896	26.3672	53.9491	26.3672	54.1943	26.3672	53.78	26.3672	53.9525	26.3672	53.6916	26.3672	53.7807	26.3672	53.6916
27.832	57.3627	27.832	57.3203	27.832	57.3615	27.832	57.234	27.832	57.3172	27.832	57.1037	27.832	57.23	27.832	56.9292	27.832	57.0999	27.832	56.711	27.832	56.9272	27.832	56.4503	27.832	56.7121	27.832	56.1494	27.832	56.4553	27.832	55.8122	27.832	56.1585	27.832	55.4445	27.832	55.8246	27.832	55.0546	27.832	55.4587	27.832	54.6539	27.832	55.0688	27.832	54.2566	27.832	54.6659	27.832	53.88	27.832	54.2647	27.832	53.5431	27.832	53.8834	27.832	53.2662	27.832	53.5423	27.832	53.068	27.832	53.2629	27.832	52.9637	27.832	53.0646	27.832	52.9623
29.2969	59.1697	29.2969	59.1181	29.2969	59.1828	29.2969	59.028	29.2969	59.1573	29.2969	58.8994	29.2969	59.093	29.2969	58.7324	29.2969	58.9897	29.2969	58.5277	29.2969	58.8474	29.2969	58.2863	29.2969	58.6661	29.2969	58.0104	29.2969	58.4462	29.2969	57.7038	29.2969	58.1889	29.2969	57.3722	29.2969	57.8967	29.2969	57.0236	29.2969	57.5738	29.2969	56.6686	29.2969	57.2271	29.2969	56.3205	29.2969	56.8665	29.2969	55.9949	29.2969	56.5051	29.2969	55.7093	29.2969	56.1588	29.2969	55.4812	29.2969	55.8455	29.2969	55.3265	29.2969	55.5836	29.2969	55.257	29.2969	55.3902	29.2969	55.2786
30.7617	58.0605	30.7617	58.0065	30.7617	58.0564	30.7617	57.8942	30.7617	57.9942	30.7617	57.7232	30.7617	57.8743	30.7617	57.4938	30.7617	57.697	30.7617	57.2065	30.7617	57.4632	30.7617	56.8629	30.7617	57.1744	30.7617	56.4661	30.7617	56.8332	30.7617	56.0216	30.7617	56.4437	30.7617	55.5379	30.7617	56.0117	30.7617	55.0277	30.7617	55.5455	30.7617	54.5078	30.7617	55.0559	30.7617	53.9993	30.7617	54.5569	30.7617	53.5265	30.7617	54.0659	30.7617	53.1144	30.7617	53.603	30.7617	52.7867	30.7617	53.1906	30.7617	52.5628	30.7617	52.8515	30.7617	52.4558	30.7617	52.6063	30.7617	52.471
32.2266	56.3996	32.2266	56.3605	32.2266	56.3559	32.2266	56.2382	32.2266	56.2286	32.2266	56.031	32.2266	56.0159	32.2266	55.7362	32.2266	55.7155	32.2266	55.3496	32.2266	55.325	32.2266	54.8664	32.2266	54.8423	32.2266	54.2817	32.2266	54.2667	32.2266	53.5919	32.2266	53.5992	32.2266	52.7961	32.2266	52.8436	32.2266	51.9	32.2266	52.0071	32.2266	50.9193	32.2266	51.1018	32.2266	49.8845	32.2266	50.1469	32.2266	48.8449	32.2266	49.1719	32.2266	47.8671	32.2266	48.2206	32.2266	47.0267	32.2266	47.353	32.2266	46.3942	32.2266	46.6405	32.2266	46.0218	32.2266	46.1525	32.2266	45.9392
33.6914	58.9146	33.6914	58.8856	33.6914	58.8817	33.6914	58.7942	33.6914	58.7873	33.6914	58.6404	33.6914	58.6322	33.6914	58.4245	33.6914	58.4181	33.6914	58.1476	33.6914	58.1477	33.6914	57.8123	33.6914	57.8254	33.6914	57.4238	33.6914	57.4579	33.6914	56.9908	33.6914	57.0543	33.6914	56.5273	33.6914	56.6261	33.6914	56.0527	33.6914	56.1874	33.6914	55.5912	33.6914	55.754	33.6914	55.1691	33.6914	55.3434	33.6914	54.8087	33.6914	54.9729	33.6914	54.5235	33.6914	54.6582	33.6914	54.3156	33.6914	54.4107	33.6914	54.1789	33.6914	54.2351	33.6914	54.1047	33.6914	54.1296	33.6914	54.0879
35.1563	61.2372	35.1563	61.2037	35.1563	61.236	35.1563	61.1359	35.1563	61.2003	35.1563	61.0351	35.1563	61.1315	35.1563	60.9038	35.1563	61.0317	35.1563	60.7458	35.1563	60.904	35.1563	60.5662	35.1563	60.7526	35.1563	60.3722	35.1563	60.5829	35.1563	60.1726	35.1563	60.4011	35.1563	59.9776	35.1563	60.214	35.1563	59.798	35.1563	60.0293	35.1563	59.6432	35.1563	59.8545	35.1563	59.5195	35.1563	59.697	35.1563	59.4285	35.1563	59.563	35.1563	59.3671	35.1563	59.4569	35.1563	59.3287	35.1563	59.38	35.1563	59.3064	35.1563	59.3303	35.1563	59.2951	35.1563	59.3034	35.1563	59.2934
36.6211	63.3032	36.6211	63.2699	36.6211	63.3179	36.6211	63.2182	36.6211	63.315	36.6211	63.1489	36.6211	63.296	36.6211	63.0639	36.6211	63.2628	36.6211	62.9666	36.6211	63.218	36.6211	62.8617	36.6211	63.1644	36.6211	62.7552	36.6211	63.1051	36.6211	62.6546	36.6211	63.0431	36.6211	62.5675	36.6211	62.9813	36.6211	62.5009	36.6211	62.9226	36.6211	62.4591	36.6211	62.8692	36.6211	62.4432	36.6211	62.8229	36.6211	62.4506	36.6211	62.7844	36.6211	62.4757	36.6211	62.7526	36.6211	62.5122	36.6211	62.7251	36.6211	62.5539	36.6211	62.6982	36.6211	62.5959	36.6211	62.6688	36.6211	62.6347
38.0859	63.0026	38.0859	62.9272	38.0859	63.054	38.0859	62.8276	38.0859	63.0821	38.0859	62.7046	38.0859	63.0885	38.0859	62.5607	38.0859	63.0748	38.0859	62.4	38.0859	63.0425	38.0859	62.2289	38.0859	62.9933	38.0859	62.0563	38.0859	62.9285	38.0859	61.8926	38.0859	62.8493	38.0859	61.7487	38.0859	62.7573	38.0859	61.6338	38.0859	62.6544	38.0859	61.5532	38.0859	62.5433	38.0859	61.5077	38.0859	62.4276	38.0859	61.494	38.0859	62.3103	38.0859	61.5073	38.0859	62.1938	38.0859	61.5433	38.0859	62.0794	38.0859	61.5992	38.0859	61.9678	38.0859	61.6727	38.0859	61.8608	38.0859	61.7611
39.5508	64.2898	39.5508	64.2896	39.5508	64.2972	39.5508	64.2993	39.5508	64.3093	39.5508	64.3225	39.5508	64.3248	39.5508	64.3628	39.5508	64.3426	39.5508	64.423	39.5508	64.362	39.5508	64.5043	39.5508	64.3823	39.5508	64.6053	39.5508	64.4034	39.5508	64.7212	39.5508	64.4252	39.5508	64.8446	39.5508	64.4489	39.5508	64.9658	39.5508	64.4766	39.5508	65.0751	39.5508	64.5117	39.5508	65.1637	39.5508	64.5575	39.5508	65.2248	39.5508	64.617	39.5508	65.2547	39.5508	64.6913	39.5508	65.2521	39.5508	64.7792	39.5508	65.2181	39.5508	64.8768	39.5508	65.1566	39.5508	64.9777	39.5508	65.0739
41.0156	69.0518	41.0156	69.1104	41.0156	69.0001	41.0156	69.176	41.0156	68.955	41.0156	69.2477	41.0156	68.9163	41.0156	69.324	41.0156	68.8838	41.0156	69.4023	41.0156	68.8581	41.0156	69.4789	41.0156	68.8402	41.0156	69.5495	41.0156	68.8319	41.0156	69.6094	41.0156	68.8351	41.0156	69.6549	41.0156	68.8514	41.0156	69.6835	41.0156	68.8815	41.0156	69.6949	41.0156	68.9245	41.0156	69.6905	41.0156	68.9787	41.0156	69.6729	41.0156	69.0418	41.0156	69.644	41.0156	69.112	41.0156	69.6047	41.0156	69.1875	41.0156	69.5549	41.0156	69.2666	41.0156	69.4942	41.0156	69.3466	41.0156	69.4238
42.4805	70.612	42.4805	70.637	42.4805	70.5902	42.4805	70.6641	42.4805	70.5723	42.4805	70.6916	42.4805	70.559	42.4805	70.7177	42.4805	70.5507	42.4805	70.7402	42.4805	70.5477	42.4805	70.7569	42.4805	70.5507	42.4805	70.7662	42.4805	70.56	42.4805	70.7677	42.4805	70.5756	42.4805	70.7621	42.4805	70.597	42.4805	70.7519	42.4805	70.6228	42.4805	70.7409	42.4805	70.651	42.4805	70.7329	42.4805	70.679	42.4805	70.7307	42.4805	70.7047	42.4805	70.7347	42.4805	70.7265	42.4805	70.7432	42.4805	70.7436	42.4805	70.753	42.4805	70.7558	42.4805	70.7609	42.4805	70.7628	42.4805	70.7645
43.9453	70.4111	43.9453	70.4073	43.9453	70.4286	43.9453	70.4164	43.9453	70.4603	43.9453	70.4379	43.9453	70.507	43.9453	70.4718	43.9453	70.5687	43.9453	70.5183	43.9453	70.6451	43.9453	70.578	43.9453	70.7349	43.9453	70.6517	43.9453	70.8362	43.9453	70.7398	43.9453	70.9462	43.9453	70.8422	43.9453	71.0613	43.9453	70.9571	43.9453	71.178	43.9453	71.0813	43.9453	71.2924	43.9453	71.2093	43.9453	71.4007	43.9453	71.3348	43.9453	71.4991	43.9453	71.4508	43.9453	71.5838	43.9453	71.5509	43.9453	71.651	43.9453	71.6305	43.9453	71.6972	43.9453	71.6861	43.9453	71.7194	43.9453	71.7159
45.4102	70.494	45.4102	70.4913	45.4102	70.5039	45.4102	70.4961	45.4102	70.5207	45.4102	70.5087	45.4102	70.5438	45.4102	70.5293	45.4102	70.5727	45.4102	70.5577	45.4102	70.607	45.4102	70.5939	45.4102	70.6458	45.4102	70.6375	45.4102	70.6885	45.4102	70.6876	45.4102	70.7343	45.4102	70.743	45.4102	70.7823	45.4102	70.8019	45.4102	70.8316	45.4102	70.8617	45.4102	70.8811	45.4102	70.9197	45.4102	70.9297	45.4102	70.9729	45.4102	70.9758	45.4102	71.0189	45.4102	71.0174	45.4102	71.0556	45.4102	71.0525	45.4102	71.0821	45.4102	71.0793	45.4102	71.0978	45.4102	71.0963	45.4102	71.1026
46.875	70.793	46.875	70.7969	46.875	70.7926	46.875	70.8046	46.875	70.7957	46.875	70.8158	46.875	70.802	46.875	70.8304	46.875	70.8111	46.875	70.848	46.875	70.8229	46.875	70.8683	46.875	70.8367	46.875	70.8907	46.875	70.8523	46.875	70.9144	46.875	70.8694	46.875	70.9386	46.875	70.8876	46.875	70.9623	46.875	70.9066	46.875	70.9845	46.875	70.9262	46.875	71.004	46.875	70.9461	46.875	71.02	46.875	70.9657	46.875	71.0321	46.875	70.9847	46.875	71.0399	46.875	71.0021	46.875	71.0435	46.875	71.0173	46.875	71.0428	46.875	71.0295	46.875	71.0381
48.3398	71.7216	48.3398	71.7278	48.3398	71.7201	48.3398	71.7387	48.3398	71.7234	48.3398	71.754	48.3398	71.7311	48.3398	71.7731	48.3398	71.7428	48.3398	71.7954	48.3398	71.758	48.3398	71.8202	48.3398	71.7758	48.3398	71.8463	48.3398	71.7956	48.3398	71.8729	48.3398	71.8167	48.3398	71.8989	48.3398	71.8383	48.3398	71.9233	48.3398	71.8598	48.3398	71.9451	48.3398	71.8807	48.3398	71.9635	48.3398	71.9006	48.3398	71.9779	48.3398	71.9192	48.3398	71.988	48.3398	71.9365	48.3398	71.9937	48.3398	71.9521	48.3398	71.9951	48.3398	71.9659	48.3398	71.9926	48.3398	71.9775	48.3398	71.9866
51.2695	72.8316	51.2695	72.8287	51.2695	72.8376	51.2695	72.8289	51.2695	72.8467	51.2695	72.8322	51.2695	72.8587	51.2695	72.8383	51.2695	72.8731	51.2695	72.8469	51.2695	72.8895	51.2695	72.8576	51.2695	72.9073	51.2695	72.8702	51.2695	72.926	51.2695	72.8841	51.2695	72.9448	51.2695	72.8989	51.2695	72.963	51.2695	72.9143	51.2695	72.9799	51.2695	72.9301	51.2695	72.9949	51.2695	72.9457	51.2695	73.0075	51.2695	72.9611	51.2695	73.0173	51.2695	72.9757	51.2695	73.0241	51.2695	72.9893	51.2695	73.0276	51.2695	73.0014	51.2695	73.028	51.2695	73.0117	51.2695	73.0253	51.2695	73.0198
52.7344	73.0208	52.7344	73.0211	52.7344	73.024	52.7344	73.025	52.7344	73.0306	52.7344	73.0324	52.7344	73.0405	52.7344	73.043	52.7344	73.0533	52.7344	73.0564	52.7344	73.0686	52.7344	73.0723	52.7344	73.086	52.7344	73.09	52.7344	73.105	52.7344	73.109	52.7344	73.1252	52.7344	73.1288	52.7344	73.1459	52.7344	73.1488	52.7344	73.1666	52.7344	73.1685	52.7344	73.1864	52.7344	73.1874	52.7344	73.2048	52.7344	73.2049	52.7344	73.2211	52.7344	73.2206	52.7344	73.2347	52.7344	73.2339	52.7344	73.2452	52.7344	73.2445	52.7344	73.2523	52.7344	73.2518	52.7344	73.2558	52.7344	73.2556
54.1992	73.3507	54.1992	73.3571	54.1992	73.347	54.1992	73.3661	54.1992	73.346	54.1992	73.3775	54.1992	73.3474	54.1992	73.391	54.1992	73.3512	54.1992	73.4062	54.1992	73.3571	54.1992	73.4224	54.1992	73.3647	54.1992	73.4391	54.1992	73.3739	54.1992	73.4555	54.1992	73.3842	54.1992	73.4709	54.1992	73.3955	54.1992	73.4847	54.1992	73.4073	54.1992	73.4963	54.1992	73.4196	54.1992	73.5053	54.1992	73.432	54.1992	73.5115	54.1992	73.4444	54.1992	73.5147	54.1992	73.4567	54.1992	73.515	54.1992	73.4687	54.1992	73.5125	54.1992	73.4802	54.1992	73.5074	54.1992	73.4908	54.1992	73.5
55.6641	73.9978	55.6641	74.0005	55.6641	73.9979	55.6641	74.0059	55.6641	74.0008	55.6641	74.0136	55.6641	74.0064	55.6641	74.0233	55.6641	74.0145	55.6641	74.0346	55.6641	74.0246	55.6641	74.047	55.6641	74.0363	55.6641	74.0598	55.6641	74.0491	55.6641	74.0726	55.6641	74.0623	55.6641	74.0848	55.6641	74.0755	55.6641	74.0959	55.6641	74.088	55.6641	74.1058	55.6641	74.0994	55.6641	74.1143	55.6641	74.1094	55.6641	74.1213	55.6641	74.1178	55.6641	74.1269	55.6641	74.1246	55.6641	74.1312	55.6641	74.1298	55.6641	74.1342	55.6641	74.1334	55.6641	74.136	55.6641	74.1357	55.6641	74.1365
58.5938	74.6939	58.5938	74.693	58.5938	74.6972	58.5938	74.6945	58.5938	74.7028	58.5938	74.6982	58.5938	74.7107	58.5938	74.7043	58.5938	74.7205	58.5938	74.7124	58.5938	74.7321	58.5938	74.7224	58.5938	74.7452	58.5938	74.734	58.5938	74.7593	58.5938	74.7469	58.5938	74.774	58.5938	74.7607	58.5938	74.7887	58.5938	74.7751	58.5938	74.8031	58.5938	74.7894	58.5938	74.8167	58.5938	74.8034	58.5938	74.829	58.5938	74.8165	58.5938	74.8396	58.5938	74.8283	58.5938	74.8482	58.5938	74.8386	58.5938	74.8544	58.5938	74.847	58.5938	74.8581	58.5938	74.8534	58.5938	74.8591	58.5938	74.8575
60.0586	75.0546	60.0586	75.0568	60.0586	75.0546	60.0586	75.0612	60.0586	75.0569	60.0586	75.0676	60.0586	75.0612	60.0586	75.0758	60.0586	75.0675	60.0586	75.0857	60.0586	75.0756	60.0586	75.0968	60.0586	75.0851	60.0586	75.109	60.0586	75.0959	60.0586	75.1217	60.0586	75.1074	60.0586	75.1347	60.0586	75.1195	60.0586	75.1476	60.0586	75.1318	60.0586	75.16	60.0586	75.1439	60.0586	75.1716	60.0586	75.1557	60.0586	75.1819	60.0586	75.167	60.0586	75.1907	60.0586	75.1774	60.0586	75.1975	60.0586	75.1866	60.0586	75.202	60.0586	75.1943	60.0586	75.2039	60.0586	75.1999	60.0586	75.2032
62.9883	75.6922	62.9883	75.6869	62.9883	75.6978	62.9883	75.682	62.9883	75.7034	62.9883	75.6778	62.9883	75.7087	62.9883	75.6745	62.9883	75.7138	62.9883	75.6722	62.9883	75.7183	62.9883	75.6712	62.9883	75.7221	62.9883	75.6714	62.9883	75.7252	62.9883	75.6729	62.9883	75.7275	62.9883	75.6757	62.9883	75.729	62.9883	75.6796	62.9883	75.7297	62.9883	75.6845	62.9883	75.7298	62.9883	75.6901	62.9883	75.7295	62.9883	75.6962	62.9883	75.729	62.9883	75.7024	62.9883	75.7284	62.9883	75.7084	62.9883	75.7275	62.9883	75.7139	62.9883	75.7264	62.9883	75.7186	62.9883	75.7247	62.9883	75.7222
64.4531	75.9497	64.4531	75.9406	64.4531	75.957	64.4531	75.9297	64.4531	75.9622	64.4531	75.9173	64.4531	75.9653	64.4531	75.9039	64.4531	75.9661	64.4531	75.8896	64.4531	75.9646	64.4531	75.8749	64.4531	75.9608	64.4531	75.8601	64.4531	75.9549	64.4531	75.8458	64.4531	75.9469	64.4531	75.8324	64.4531	75.937	64.4531	75.8204	64.4531	75.9256	64.4531	75.8103	64.4531	75.913	64.4531	75.8027	64.4531	75.8996	64.4531	75.7981	64.4531	75.8858	64.4531	75.7967	64.4531	75.872	64.4531	75.7986	64.4531	75.8585	64.4531	75.8038	64.4531	75.8454	64.4531	75.8116	64.4531	75.8329	64.4531	75.8215
67.3828	76.6697	67.3828	76.6615	67.3828	76.6737	67.3828	76.6495	67.3828	76.6735	67.3828	76.6337	67.3828	76.669	67.3828	76.6144	67.3828	76.6601	67.3828	76.592	67.3828	76.6467	67.3828	76.5666	67.3828	76.6291	67.3828	76.5386	67.3828	76.6075	67.3828	76.5087	67.3828	76.5821	67.3828	76.4774	67.3828	76.5536	67.3828	76.4457	67.3828	76.5227	67.3828	76.4145	67.3828	76.4903	67.3828	76.3852	67.3828	76.4573	67.3828	76.3592	67.3828	76.4251	67.3828	76.3378	67.3828	76.3949	67.3828	76.3223	67.3828	76.3679	67.3828	76.3133	67.3828	76.3452	67.3828	76.3113	67.3828	76.3277	67.3828	76.3162
68.8477	77.1014	68.8477	77.0932	68.8477	77.1059	68.8477	77.0814	68.8477	77.1062	68.8477	77.0664	68.8477	77.1022	68.8477	77.0486	68.8477	77.0938	68.8477	77.0281	68.8477	77.0807	68.8477	77.0054	68.8477	77.0632	68.8477	76.9807	68.8477	77.0413	68.8477	76.9545	68.8477	77.0156	68.8477	76.9272	68.8477	76.9865	68.8477	76.8993	68.8477	76.955	68.8477	76.8716	68.8477	76.922	68.8477	76.8449	68.8477	76.8888	68.8477	76.8204	68.8477	76.8568	68.8477	76.7989	68.8477	76.8276	68.8477	76.7817	68.8477	76.8027	68.8477	76.7695	68.8477	76.7831	68.8477	76.7632	68.8477	76.7698	68.8477	76.7632
