"SPL Horizontal"																																																																							
"On-Axis"		"10°"		"-10°"		"20°"		"-20°"		"30°"		"-30°"		"40°"		"-40°"		"50°"		"-50°"		"60°"		"-60°"		"70°"		"-70°"		"80°"		"-80°"		"90°"		"-90°"		"100°"		"-100°"		"110°"		"-110°"		"120°"		"-120°"		"130°"		"-130°"		"140°"		"-140°"		"150°"		"-150°"		"160°"		"-160°"		"170°"		"-170°"		"180°"	
"Frequency [Hz]"	"Sound Pessure Level [dB]  / [2.83V 1m] "	"Frequency [Hz]"	"Sound Pessure Level [dB]  / [2.83V 1m] "	"Frequency [Hz]"	"Sound Pessure Level [dB]  / [2.83V 1m] "	"Frequency [Hz]"	"Sound Pessure Level [dB]  / [2.83V 1m] "	"Frequency [Hz]"	"Sound Pessure Level [dB]  / [2.83V 1m] "	"Frequency [Hz]"	"Sound Pessure Level [dB]  / [2.83V 1m] "	"Frequency [Hz]"	"Sound Pessure Level [dB]  / [2.83V 1m] "	"Frequency [Hz]"	"Sound Pessure Level [dB]  / [2.83V 1m] "	"Frequency [Hz]"	"Sound Pessure Level [dB]  / [2.83V 1m] "	"Frequency [Hz]"	"Sound Pessure Level [dB]  / [2.83V 1m] "	"Frequency [Hz]"	"Sound Pessure Level [dB]  / [2.83V 1m] "	"Frequency [Hz]"	"Sound Pessure Level [dB]  / [2.83V 1m] "	"Frequency [Hz]"	"Sound Pessure Level [dB]  / [2.83V 1m] "	"Frequency [Hz]"	"Sound Pessure Level [dB]  / [2.83V 1m] "	"Frequency [Hz]"	"Sound Pessure Level [dB]  / [2.83V 1m] "	"Frequency [Hz]"	"Sound Pessure Level [dB]  / [2.83V 1m] "	"Frequency [Hz]"	"Sound Pessure Level [dB]  / [2.83V 1m] "	"Frequency [Hz]"	"Sound Pessure Level [dB]  / [2.83V 1m] "	"Frequency [Hz]"	"Sound Pessure Level [dB]  / [2.83V 1m] "	"Frequency [Hz]"	"Sound Pessure Level [dB]  / [2.83V 1m] "	"Frequency [Hz]"	"Sound Pessure Level [dB]  / [2.83V 1m] "	"Frequency [Hz]"	"Sound Pessure Level [dB]  / [2.83V 1m] "	"Frequency [Hz]"	"Sound Pessure Level [dB]  / [2.83V 1m] "	"Frequency [Hz]"	"Sound Pessure Level [dB]  / [2.83V 1m] "	"Frequency [Hz]"	"Sound Pessure Level [dB]  / [2.83V 1m] "	"Frequency [Hz]"	"Sound Pessure Level [dB]  / [2.83V 1m] "	"Frequency [Hz]"	"Sound Pessure Level [dB]  / [2.83V 1m] "	"Frequency [Hz]"	"Sound Pessure Level [dB]  / [2.83V 1m] "	"Frequency [Hz]"	"Sound Pessure Level [dB]  / [2.83V 1m] "	"Frequency [Hz]"	"Sound Pessure Level [dB]  / [2.83V 1m] "	"Frequency [Hz]"	"Sound Pessure Level [dB]  / [2.83V 1m] "	"Frequency [Hz]"	"Sound Pessure Level [dB]  / [2.83V 1m] "	"Frequency [Hz]"	"Sound Pessure Level [dB]  / [2.83V 1m] "	"Frequency [Hz]"	"Sound Pessure Level [dB]  / [2.83V 1m] "	"Frequency [Hz]"	"Sound Pessure Level [dB]  / [2.83V 1m] "	"Frequency [Hz]"	"Sound Pessure Level [dB]  / [2.83V 1m] "
20.5078	53.7975	20.5078	53.8258	20.5078	53.7555	20.5078	53.8396	20.5078	53.7008	20.5078	53.8387	20.5078	53.635	20.5078	53.823	20.5078	53.5598	20.5078	53.793	20.5078	53.4773	20.5078	53.7495	20.5078	53.3901	20.5078	53.694	20.5078	53.3007	20.5078	53.6278	20.5078	53.2123	20.5078	53.5527	20.5078	53.1279	20.5078	53.4709	20.5078	53.0505	20.5078	53.3847	20.5078	52.9829	20.5078	53.2966	20.5078	52.9273	20.5078	53.2096	20.5078	52.885	20.5078	53.1267	20.5078	52.8568	20.5078	53.0508	20.5078	52.843	20.5078	52.9843	20.5078	52.8436	20.5078	52.9293	20.5078	52.8584	20.5078	52.8871
21.9727	55.9739	21.9727	55.986	21.9727	55.9484	21.9727	55.9846	21.9727	55.9096	21.9727	55.9702	21.9727	55.8583	21.9727	55.9436	21.9727	55.7953	21.9727	55.9057	21.9727	55.7222	21.9727	55.8577	21.9727	55.6408	21.9727	55.8008	21.9727	55.5531	21.9727	55.7361	21.9727	55.4619	21.9727	55.6649	21.9727	55.3702	21.9727	55.5886	21.9727	55.2813	21.9727	55.5087	21.9727	55.199	21.9727	55.427	21.9727	55.1268	21.9727	55.3454	21.9727	55.0679	21.9727	55.2664	21.9727	55.0248	21.9727	55.1926	21.9727	54.9992	21.9727	55.1268	21.9727	54.9917	21.9727	55.0715	21.9727	55.0021	21.9727	55.0292
23.4375	58.5277	23.4375	58.5297	23.4375	58.514	23.4375	58.52	23.4375	58.4891	23.4375	58.4985	23.4375	58.4534	23.4375	58.4655	23.4375	58.4078	23.4375	58.4214	23.4375	58.3532	23.4375	58.367	23.4375	58.2909	23.4375	58.3034	23.4375	58.2221	23.4375	58.2318	23.4375	58.1486	23.4375	58.1542	23.4375	58.0723	23.4375	58.0727	23.4375	57.9951	23.4375	57.9898	23.4375	57.9192	23.4375	57.9083	23.4375	57.8467	23.4375	57.8311	23.4375	57.7799	23.4375	57.7615	23.4375	57.7212	23.4375	57.7025	23.4375	57.673	23.4375	57.6569	23.4375	57.6377	23.4375	57.6267	23.4375	57.6173	23.4375	57.6134
24.9023	60.1506	24.9023	60.1505	24.9023	60.1392	24.9023	60.139	24.9023	60.1168	24.9023	60.1163	24.9023	60.0841	24.9023	60.0831	24.9023	60.0421	24.9023	60.0403	24.9023	59.992	24.9023	59.9892	24.9023	59.9354	24.9023	59.9312	24.9023	59.8739	24.9023	59.868	24.9023	59.8093	24.9023	59.8015	24.9023	59.7436	24.9023	59.7337	24.9023	59.6786	24.9023	59.6667	24.9023	59.6163	24.9023	59.6027	24.9023	59.5585	24.9023	59.5439	24.9023	59.5068	24.9023	59.4921	24.9023	59.4626	24.9023	59.4492	24.9023	59.4275	24.9023	59.4166	24.9023	59.4023	24.9023	59.3952	24.9023	59.3882	24.9023	59.3857
26.3672	62.041	26.3672	62.0393	26.3672	62.0304	26.3672	62.0251	26.3672	62.0079	26.3672	61.9989	26.3672	61.9742	26.3672	61.9612	26.3672	61.9303	26.3672	61.9131	26.3672	61.8775	26.3672	61.8557	26.3672	61.8174	26.3672	61.7908	26.3672	61.7515	26.3672	61.7202	26.3672	61.6819	26.3672	61.6461	26.3672	61.6105	26.3672	61.5706	26.3672	61.5393	26.3672	61.4963	26.3672	61.4703	26.3672	61.4256	26.3672	61.4055	26.3672	61.3611	26.3672	61.3467	26.3672	61.305	26.3672	61.2956	26.3672	61.2594	26.3672	61.2539	26.3672	61.2257	26.3672	61.2229	26.3672	61.2049	26.3672	61.2038	26.3672	61.1977
27.832	63.9577	27.832	63.9542	27.832	63.9491	27.832	63.9389	27.832	63.9289	27.832	63.912	27.832	63.8977	27.832	63.8743	27.832	63.8564	27.832	63.8269	27.832	63.8062	27.832	63.771	27.832	63.7487	27.832	63.7084	27.832	63.6855	27.832	63.641	27.832	63.6185	27.832	63.5708	27.832	63.5498	27.832	63.5001	27.832	63.4813	27.832	63.4311	27.832	63.4152	27.832	63.3662	27.832	63.3533	27.832	63.3074	27.832	63.2976	27.832	63.2567	27.832	63.2497	27.832	63.2156	27.832	63.211	27.832	63.1854	27.832	63.1826	27.832	63.1667	27.832	63.1654	27.832	63.16
29.2969	65.6646	29.2969	65.6605	29.2969	65.6566	29.2969	65.6446	29.2969	65.6371	29.2969	65.6171	29.2969	65.6066	29.2969	65.5788	29.2969	65.5662	29.2969	65.5306	29.2969	65.5169	29.2969	65.474	29.2969	65.4602	29.2969	65.4107	29.2969	65.3979	29.2969	65.3427	29.2969	65.3316	29.2969	65.2721	29.2969	65.2634	29.2969	65.2013	29.2969	65.1952	29.2969	65.1325	29.2969	65.129	29.2969	65.068	29.2969	65.0668	29.2969	65.0099	29.2969	65.0106	29.2969	64.9602	29.2969	64.9619	29.2969	64.9201	29.2969	64.9223	29.2969	64.891	29.2969	64.8929	29.2969	64.8735	29.2969	64.8746	29.2969	64.868
30.7617	67.3908	30.7617	67.3845	30.7617	67.3853	30.7617	67.3665	30.7617	67.3683	30.7617	67.3373	30.7617	67.3404	30.7617	67.2976	30.7617	67.3026	30.7617	67.2486	30.7617	67.2561	30.7617	67.1918	30.7617	67.2023	30.7617	67.1291	30.7617	67.1429	30.7617	67.0625	30.7617	67.0797	30.7617	66.9943	30.7617	67.0147	30.7617	66.927	30.7617	66.9497	30.7617	66.8629	30.7617	66.8868	30.7617	66.804	30.7617	66.8279	30.7617	66.7523	30.7617	66.7747	30.7617	66.7092	30.7617	66.7288	30.7617	66.6756	30.7617	66.6913	30.7617	66.6522	30.7617	66.6631	30.7617	66.6392	30.7617	66.6448	30.7617	66.6368
32.2266	68.9803	32.2266	68.9761	32.2266	68.9717	32.2266	68.9592	32.2266	68.9507	32.2266	68.9299	32.2266	68.918	32.2266	68.8892	32.2266	68.8746	32.2266	68.838	32.2266	68.822	32.2266	68.778	32.2266	68.7617	32.2266	68.7109	32.2266	68.6955	32.2266	68.6391	32.2266	68.6256	32.2266	68.5648	32.2266	68.5541	32.2266	68.4907	32.2266	68.483	32.2266	68.4193	32.2266	68.4145	32.2266	68.3529	32.2266	68.3506	32.2266	68.2936	32.2266	68.2932	32.2266	68.2432	32.2266	68.2437	32.2266	68.2029	32.2266	68.2038	32.2266	68.1737	32.2266	68.1744	32.2266	68.156	32.2266	68.1564	32.2266	68.1502
33.6914	70.5372	33.6914	70.5323	33.6914	70.5292	33.6914	70.5147	33.6914	70.5087	33.6914	70.4847	33.6914	70.4762	33.6914	70.4433	33.6914	70.4327	33.6914	70.3916	33.6914	70.3797	33.6914	70.331	33.6914	70.3187	33.6914	70.2634	33.6914	70.2515	33.6914	70.1909	33.6914	70.1804	33.6914	70.1156	33.6914	70.1073	33.6914	70.0402	33.6914	70.0346	33.6914	69.9669	33.6914	69.9643	33.6914	69.8982	33.6914	69.8984	33.6914	69.8363	33.6914	69.8388	33.6914	69.7833	33.6914	69.7872	33.6914	69.7408	33.6914	69.745	33.6914	69.7099	33.6914	69.7134	33.6914	69.6916	33.6914	69.6936	33.6914	69.6862
35.1563	72.108	35.1563	72.101	35.1563	72.1026	35.1563	72.0815	35.1563	72.0848	35.1563	72.0501	35.1563	72.0553	35.1563	72.0077	35.1563	72.015	35.1563	71.9556	35.1563	71.9653	35.1563	71.8953	35.1563	71.9078	35.1563	71.8287	35.1563	71.8442	35.1563	71.7581	35.1563	71.7767	35.1563	71.6857	35.1563	71.7075	35.1563	71.6141	35.1563	71.6385	35.1563	71.5457	35.1563	71.5721	35.1563	71.4828	35.1563	71.5099	35.1563	71.4273	35.1563	71.4537	35.1563	71.381	35.1563	71.405	35.1563	71.3449	35.1563	71.3648	35.1563	71.32	35.1563	71.3343	35.1563	71.3066	35.1563	71.314	35.1563	71.3046
36.6211	73.5318	36.6211	73.5255	36.6211	73.5258	36.6211	73.507	36.6211	73.5077	36.6211	73.4769	36.6211	73.4781	36.6211	73.436	36.6211	73.4379	36.6211	73.3855	36.6211	73.3884	36.6211	73.327	36.6211	73.3311	36.6211	73.2624	36.6211	73.2678	36.6211	73.1937	36.6211	73.2005	36.6211	73.1231	36.6211	73.1313	36.6211	73.053	36.6211	73.0623	36.6211	72.9856	36.6211	72.9955	36.6211	72.9229	36.6211	72.933	36.6211	72.8668	36.6211	72.8764	36.6211	72.8189	36.6211	72.8274	36.6211	72.7806	36.6211	72.7875	36.6211	72.7529	36.6211	72.7577	36.6211	72.7364	36.6211	72.7389	36.6211	72.7317
38.0859	74.8895	38.0859	74.8829	38.0859	74.8837	38.0859	74.8641	38.0859	74.8655	38.0859	74.8337	38.0859	74.8356	38.0859	74.7927	38.0859	74.7947	38.0859	74.7422	38.0859	74.7442	38.0859	74.684	38.0859	74.6855	38.0859	74.6199	38.0859	74.6207	38.0859	74.5518	38.0859	74.5516	38.0859	74.482	38.0859	74.4805	38.0859	74.4128	38.0859	74.4096	38.0859	74.3461	38.0859	74.3413	38.0859	74.284	38.0859	74.2777	38.0859	74.2281	38.0859	74.2207	38.0859	74.1799	38.0859	74.1721	38.0859	74.1405	38.0859	74.1334	38.0859	74.1111	38.0859	74.1055	38.0859	74.0923	38.0859	74.0893	38.0859	74.0849
39.5508	75.9659	39.5508	75.9554	39.5508	75.9639	39.5508	75.9327	39.5508	75.9495	39.5508	75.8986	39.5508	75.9229	39.5508	75.8543	39.5508	75.8851	39.5508	75.8011	39.5508	75.8372	39.5508	75.741	39.5508	75.7808	39.5508	75.676	39.5508	75.7176	39.5508	75.6083	39.5508	75.6494	39.5508	75.5403	39.5508	75.5786	39.5508	75.474	39.5508	75.5074	39.5508	75.4114	39.5508	75.4382	39.5508	75.3541	39.5508	75.3734	39.5508	75.3032	39.5508	75.3151	39.5508	75.2597	39.5508	75.2654	39.5508	75.2244	39.5508	75.2258	39.5508	75.198	39.5508	75.1973	39.5508	75.1814	39.5508	75.1805	39.5508	75.1753
41.0156	76.9097	41.0156	76.9	41.0156	76.9066	41.0156	76.8776	41.0156	76.891	41.0156	76.8432	41.0156	76.8636	41.0156	76.7977	41.0156	76.8256	41.0156	76.7429	41.0156	76.7783	41.0156	76.6805	41.0156	76.7234	41.0156	76.6131	41.0156	76.6627	41.0156	76.5433	41.0156	76.5982	41.0156	76.4737	41.0156	76.5318	41.0156	76.4068	41.0156	76.4656	41.0156	76.345	41.0156	76.4015	41.0156	76.2899	41.0156	76.3413	41.0156	76.2427	41.0156	76.2867	41.0156	76.2039	41.0156	76.2392	41.0156	76.174	41.0156	76.2	41.0156	76.1533	41.0156	76.1701	41.0156	76.1422	41.0156	76.1504	41.0156	76.1411
42.4805	77.969	42.4805	77.9638	42.4805	77.9602	42.4805	77.9446	42.4805	77.9378	42.4805	77.9118	42.4805	77.9025	42.4805	77.8663	42.4805	77.8556	42.4805	77.8094	42.4805	77.7986	42.4805	77.7428	42.4805	77.7333	42.4805	77.6685	42.4805	77.6617	42.4805	77.5891	42.4805	77.5863	42.4805	77.5071	42.4805	77.5095	42.4805	77.4255	42.4805	77.4336	42.4805	77.3472	42.4805	77.361	42.4805	77.2749	42.4805	77.2935	42.4805	77.2113	42.4805	77.233	42.4805	77.1583	42.4805	77.1807	42.4805	77.1174	42.4805	77.1378	42.4805	77.0895	42.4805	77.1049	42.4805	77.0747	42.4805	77.083	42.4805	77.0727
43.9453	78.9339	43.9453	78.9279	43.9453	78.9265	43.9453	78.9085	43.9453	78.9061	43.9453	78.8763	43.9453	78.8733	43.9453	78.832	43.9453	78.8292	43.9453	78.7771	43.9453	78.7752	43.9453	78.7131	43.9453	78.7129	43.9453	78.642	43.9453	78.6443	43.9453	78.5661	43.9453	78.5714	43.9453	78.4879	43.9453	78.4965	43.9453	78.41	43.9453	78.422	43.9453	78.3351	43.9453	78.3499	43.9453	78.2658	43.9453	78.2826	43.9453	78.2042	43.9453	78.2219	43.9453	78.1525	43.9453	78.1695	43.9453	78.1119	43.9453	78.1266	43.9453	78.0834	43.9453	78.0942	43.9453	78.0675	43.9453	78.0732	43.9453	78.0642
45.4102	79.6161	45.4102	79.6113	45.4102	79.6072	45.4102	79.5928	45.4102	79.5849	45.4102	79.5613	45.4102	79.5501	45.4102	79.5178	45.4102	79.5039	45.4102	79.4637	45.4102	79.448	45.4102	79.4009	45.4102	79.3842	45.4102	79.3316	45.4102	79.3147	45.4102	79.2582	45.4102	79.242	45.4102	79.1833	45.4102	79.1684	45.4102	79.1094	45.4102	79.0962	45.4102	79.039	45.4102	79.0278	45.4102	78.9743	45.4102	78.9652	45.4102	78.9172	45.4102	78.9101	45.4102	78.8691	45.4102	78.8637	45.4102	78.8309	45.4102	78.8271	45.4102	78.8031	45.4102	78.8007	45.4102	78.7862	45.4102	78.785	45.4102	78.7802
46.875	80.2961	46.875	80.2916	46.875	80.2867	46.875	80.2732	46.875	80.2636	46.875	80.2417	46.875	80.2277	46.875	80.198	46.875	80.18	46.875	80.1437	46.875	80.1223	46.875	80.0808	46.875	80.0565	46.875	80.0113	46.875	79.9849	46.875	79.9377	46.875	79.9099	46.875	79.8627	46.875	79.8343	46.875	79.7887	46.875	79.7604	46.875	79.7183	46.875	79.6909	46.875	79.6535	46.875	79.6278	46.875	79.5962	46.875	79.5729	46.875	79.5475	46.875	79.5275	46.875	79.5084	46.875	79.4924	46.875	79.4793	46.875	79.4682	46.875	79.4605	46.875	79.4548	46.875	79.4523
48.3398	80.8243	48.3398	80.8193	48.3398	80.8143	48.3398	80.7996	48.3398	80.7896	48.3398	80.7657	48.3398	80.7508	48.3398	80.7188	48.3398	80.6991	48.3398	80.6605	48.3398	80.6361	48.3398	80.5927	48.3398	80.5637	48.3398	80.5177	48.3398	80.4845	48.3398	80.4379	48.3398	80.4008	48.3398	80.356	48.3398	80.3157	48.3398	80.2746	48.3398	80.2319	48.3398	80.1962	48.3398	80.1524	48.3398	80.1231	48.3398	80.0797	48.3398	80.0572	48.3398	80.016	48.3398	80	48.3398	79.9633	48.3398	79.9528	48.3398	79.9228	48.3398	79.9166	48.3398	79.8953	48.3398	79.8922	48.3398	79.8811	48.3398	79.8802
51.2695	81.7057	51.2695	81.6979	51.2695	81.6987	51.2695	81.6756	51.2695	81.677	51.2695	81.6394	51.2695	81.6413	51.2695	81.5906	51.2695	81.5928	51.2695	81.5309	51.2695	81.5331	51.2695	81.4622	51.2695	81.4641	51.2695	81.3868	51.2695	81.3881	51.2695	81.3075	51.2695	81.3076	51.2695	81.2269	51.2695	81.2255	51.2695	81.1475	51.2695	81.1445	51.2695	81.072	51.2695	81.0672	51.2695	81.0026	51.2695	80.9962	51.2695	80.941	51.2695	80.9336	51.2695	80.8886	51.2695	80.8811	51.2695	80.8466	51.2695	80.8398	51.2695	80.8157	51.2695	80.8105	51.2695	80.7963	51.2695	80.7934	51.2695	80.7888
52.7344	82.0595	52.7344	82.0512	52.7344	82.053	52.7344	82.0283	52.7344	82.0318	52.7344	81.9916	52.7344	81.9966	52.7344	81.9422	52.7344	81.9488	52.7344	81.8821	52.7344	81.8898	52.7344	81.8132	52.7344	81.8218	52.7344	81.738	52.7344	81.747	52.7344	81.6592	52.7344	81.6681	52.7344	81.5796	52.7344	81.5878	52.7344	81.5019	52.7344	81.5089	52.7344	81.4285	52.7344	81.4339	52.7344	81.3616	52.7344	81.3652	52.7344	81.3028	52.7344	81.3048	52.7344	81.2535	52.7344	81.2541	52.7344	81.2144	52.7344	81.2141	52.7344	81.1861	52.7344	81.1855	52.7344	81.1689	52.7344	81.1685	52.7344	81.163
54.1992	82.3818	54.1992	82.3728	54.1992	82.3755	54.1992	82.349	54.1992	82.3543	54.1992	82.3112	54.1992	82.3187	54.1992	82.2607	54.1992	82.27	54.1992	82.1994	54.1992	82.2098	54.1992	82.1294	54.1992	82.1401	54.1992	82.0534	54.1992	82.0633	54.1992	81.9741	54.1992	81.9823	54.1992	81.8942	54.1992	81.8998	54.1992	81.8165	54.1992	81.8189	54.1992	81.7435	54.1992	81.7423	54.1992	81.6772	54.1992	81.6726	54.1992	81.6192	54.1992	81.6118	54.1992	81.5704	54.1992	81.5616	54.1992	81.5315	54.1992	81.5229	54.1992	81.5029	54.1992	81.496	54.1992	81.4847	54.1992	81.4809	54.1992	81.4773
55.6641	82.6078	55.6641	82.5974	55.6641	82.6034	55.6641	82.5726	55.6641	82.5845	55.6641	82.5343	55.6641	82.5518	55.6641	82.4839	55.6641	82.5067	55.6641	82.4232	55.6641	82.4508	55.6641	82.3546	55.6641	82.3862	55.6641	82.2808	55.6641	82.3154	55.6641	82.2047	55.6641	82.2409	55.6641	82.129	55.6641	82.1656	55.6641	82.0565	55.6641	82.092	55.6641	81.9896	55.6641	82.0225	55.6641	81.9302	55.6641	81.9594	55.6641	81.8796	55.6641	81.9041	55.6641	81.8385	55.6641	81.858	55.6641	81.8072	55.6641	81.8215	55.6641	81.7857	55.6641	81.795	55.6641	81.7737	55.6641	81.7783	55.6641	81.7713
58.5938	83.0916	58.5938	83.0815	58.5938	83.0855	58.5938	83.0558	58.5938	83.0636	58.5938	83.0154	58.5938	83.0266	58.5938	82.9619	58.5938	82.9759	58.5938	82.8973	58.5938	82.9134	58.5938	82.8243	58.5938	82.8414	58.5938	82.7458	58.5938	82.7627	58.5938	82.6648	58.5938	82.6804	58.5938	82.5845	58.5938	82.5977	58.5938	82.5078	58.5938	82.5176	58.5938	82.437	58.5938	82.443	58.5938	82.3742	58.5938	82.3763	58.5938	82.3206	58.5938	82.3192	58.5938	82.2766	58.5938	82.2729	58.5938	82.2425	58.5938	82.2378	58.5938	82.2179	58.5938	82.2137	58.5938	82.2026	58.5938	82.2002	58.5938	82.1967
60.0586	83.3045	60.0586	83.2945	60.0586	83.2979	60.0586	83.2683	60.0586	83.2749	60.0586	83.2268	60.0586	83.2363	60.0586	83.1717	60.0586	83.1834	60.0586	83.1051	60.0586	83.1183	60.0586	83.0296	60.0586	83.0433	60.0586	82.9482	60.0586	82.9613	60.0586	82.8641	60.0586	82.8754	60.0586	82.7804	60.0586	82.7889	60.0586	82.7002	60.0586	82.7051	60.0586	82.626	60.0586	82.627	60.0586	82.56	60.0586	82.5571	60.0586	82.5033	60.0586	82.4973	60.0586	82.4568	60.0586	82.4489	60.0586	82.4204	60.0586	82.4123	60.0586	82.3941	60.0586	82.3875	60.0586	82.3775	60.0586	82.3738	60.0586	82.3707
62.9883	83.6688	62.9883	83.658	62.9883	83.663	62.9883	83.6308	62.9883	83.6407	62.9883	83.5885	62.9883	83.6028	62.9883	83.5325	62.9883	83.5505	62.9883	83.4651	62.9883	83.486	62.9883	83.389	62.9883	83.4115	62.9883	83.3071	62.9883	83.33	62.9883	83.2227	62.9883	83.2447	62.9883	83.1389	62.9883	83.1586	62.9883	83.0588	62.9883	83.0751	62.9883	82.9849	62.9883	82.9971	62.9883	82.9191	62.9883	82.927	62.9883	82.8627	62.9883	82.8667	62.9883	82.8165	62.9883	82.8174	62.9883	82.7806	62.9883	82.7797	62.9883	82.7549	62.9883	82.7534	62.9883	82.7393	62.9883	82.7382	62.9883	82.7336
64.4531	83.797	64.4531	83.7852	64.4531	83.7922	64.4531	83.7573	64.4531	83.771	64.4531	83.7144	64.4531	83.7343	64.4531	83.6581	64.4531	83.6835	64.4531	83.5908	64.4531	83.6207	64.4531	83.5151	64.4531	83.5483	64.4531	83.4343	64.4531	83.4693	64.4531	83.3516	64.4531	83.3868	64.4531	83.2703	64.4531	83.3041	64.4531	83.1935	64.4531	83.2243	64.4531	83.1236	64.4531	83.1504	64.4531	83.0624	64.4531	83.0845	64.4531	83.0113	64.4531	83.0283	64.4531	82.9704	64.4531	82.9827	64.4531	82.9397	64.4531	82.9478	64.4531	82.9185	64.4531	82.9234	64.4531	82.9065	64.4531	82.9088	64.4531	82.9033
67.3828	84.0545	67.3828	84.0413	67.3828	84.0504	67.3828	84.0115	67.3828	84.0292	67.3828	83.9663	67.3828	83.9917	67.3828	83.9075	67.3828	83.9396	67.3828	83.838	67.3828	83.8748	67.3828	83.7605	67.3828	83.8003	67.3828	83.6788	67.3828	83.7191	67.3828	83.5962	67.3828	83.6347	67.3828	83.5162	67.3828	83.5507	67.3828	83.4419	67.3828	83.4706	67.3828	83.3757	67.3828	83.3973	67.3828	83.319	67.3828	83.3332	67.3828	83.2725	67.3828	83.28	67.3828	83.236	67.3828	83.2383	67.3828	83.2088	67.3828	83.2078	67.3828	83.1898	67.3828	83.1877	67.3828	83.1783	67.3828	83.1768	67.3828	83.1739
68.8477	84.1666	68.8477	84.1522	68.8477	84.1628	68.8477	84.1203	68.8477	84.141	68.8477	84.0722	68.8477	84.1021	68.8477	84.01	68.8477	84.0476	68.8477	83.9364	68.8477	83.9798	68.8477	83.8547	68.8477	83.9017	68.8477	83.7685	68.8477	83.8165	68.8477	83.6818	68.8477	83.7279	68.8477	83.5982	68.8477	83.6397	68.8477	83.521	68.8477	83.5556	68.8477	83.4526	68.8477	83.4789	68.8477	83.3947	68.8477	83.4121	68.8477	83.3477	68.8477	83.3571	68.8477	83.3114	68.8477	83.3143	68.8477	83.2846	68.8477	83.2835	68.8477	83.2661	68.8477	83.2636	68.8477	83.2549	68.8477	83.2531	68.8477	83.2505
