"SPL Vertical"																																																																							
"On-Axis"		"10°"		"-10°"		"20°"		"-20°"		"30°"		"-30°"		"40°"		"-40°"		"50°"		"-50°"		"60°"		"-60°"		"70°"		"-70°"		"80°"		"-80°"		"90°"		"-90°"		"100°"		"-100°"		"110°"		"-110°"		"120°"		"-120°"		"130°"		"-130°"		"140°"		"-140°"		"150°"		"-150°"		"160°"		"-160°"		"170°"		"-170°"		"180°"	
"Frequency [Hz]"	"Sound Pessure Level [dB]  / [2.83V 1m] "	"Frequency [Hz]"	"Sound Pessure Level [dB]  / [2.83V 1m] "	"Frequency [Hz]"	"Sound Pessure Level [dB]  / [2.83V 1m] "	"Frequency [Hz]"	"Sound Pessure Level [dB]  / [2.83V 1m] "	"Frequency [Hz]"	"Sound Pessure Level [dB]  / [2.83V 1m] "	"Frequency [Hz]"	"Sound Pessure Level [dB]  / [2.83V 1m] "	"Frequency [Hz]"	"Sound Pessure Level [dB]  / [2.83V 1m] "	"Frequency [Hz]"	"Sound Pessure Level [dB]  / [2.83V 1m] "	"Frequency [Hz]"	"Sound Pessure Level [dB]  / [2.83V 1m] "	"Frequency [Hz]"	"Sound Pessure Level [dB]  / [2.83V 1m] "	"Frequency [Hz]"	"Sound Pessure Level [dB]  / [2.83V 1m] "	"Frequency [Hz]"	"Sound Pessure Level [dB]  / [2.83V 1m] "	"Frequency [Hz]"	"Sound Pessure Level [dB]  / [2.83V 1m] "	"Frequency [Hz]"	"Sound Pessure Level [dB]  / [2.83V 1m] "	"Frequency [Hz]"	"Sound Pessure Level [dB]  / [2.83V 1m] "	"Frequency [Hz]"	"Sound Pessure Level [dB]  / [2.83V 1m] "	"Frequency [Hz]"	"Sound Pessure Level [dB]  / [2.83V 1m] "	"Frequency [Hz]"	"Sound Pessure Level [dB]  / [2.83V 1m] "	"Frequency [Hz]"	"Sound Pessure Level [dB]  / [2.83V 1m] "	"Frequency [Hz]"	"Sound Pessure Level [dB]  / [2.83V 1m] "	"Frequency [Hz]"	"Sound Pessure Level [dB]  / [2.83V 1m] "	"Frequency [Hz]"	"Sound Pessure Level [dB]  / [2.83V 1m] "	"Frequency [Hz]"	"Sound Pessure Level [dB]  / [2.83V 1m] "	"Frequency [Hz]"	"Sound Pessure Level [dB]  / [2.83V 1m] "	"Frequency [Hz]"	"Sound Pessure Level [dB]  / [2.83V 1m] "	"Frequency [Hz]"	"Sound Pessure Level [dB]  / [2.83V 1m] "	"Frequency [Hz]"	"Sound Pessure Level [dB]  / [2.83V 1m] "	"Frequency [Hz]"	"Sound Pessure Level [dB]  / [2.83V 1m] "	"Frequency [Hz]"	"Sound Pessure Level [dB]  / [2.83V 1m] "	"Frequency [Hz]"	"Sound Pessure Level [dB]  / [2.83V 1m] "	"Frequency [Hz]"	"Sound Pessure Level [dB]  / [2.83V 1m] "	"Frequency [Hz]"	"Sound Pessure Level [dB]  / [2.83V 1m] "	"Frequency [Hz]"	"Sound Pessure Level [dB]  / [2.83V 1m] "	"Frequency [Hz]"	"Sound Pessure Level [dB]  / [2.83V 1m] "	"Frequency [Hz]"	"Sound Pessure Level [dB]  / [2.83V 1m] "	"Frequency [Hz]"	"Sound Pessure Level [dB]  / [2.83V 1m] "
20.5078	50.1768	20.5078	49.9546	20.5078	50.3819	20.5078	49.8155	20.5078	50.4919	20.5078	49.8684	20.5078	50.4516	20.5078	50.1956	20.5078	50.2293	20.5078	50.8139	20.5078	49.8341	20.5078	51.6697	20.5078	49.3679	20.5078	52.6741	20.5078	49.1134	20.5078	53.7421	20.5078	49.508	20.5078	54.8107	20.5078	50.7456	20.5078	55.839	20.5078	52.5052	20.5078	56.8012	20.5078	54.3443	20.5078	57.6802	20.5078	56.0103	20.5078	58.462	20.5078	57.4103	20.5078	59.1335	20.5078	58.5254	20.5078	59.6806	20.5078	59.364	20.5078	60.0875	20.5078	59.9437	20.5078	60.3367	20.5078	60.2852	20.5078	60.4092
23.4375	54.4452	23.4375	54.241	23.4375	54.6232	23.4375	54.0805	23.4375	54.7203	23.4375	54.0431	23.4375	54.6982	23.4375	54.1999	23.4375	54.5372	23.4375	54.5891	23.4375	54.25	23.4375	55.2001	23.4375	53.9119	23.4375	55.9819	23.4375	53.7056	23.4375	56.8674	23.4375	53.9108	23.4375	57.7949	23.4375	54.7188	23.4375	58.7165	23.4375	56.0212	23.4375	59.5984	23.4375	57.5198	23.4375	60.4164	23.4375	58.9655	23.4375	61.1518	23.4375	60.2272	23.4375	61.7884	23.4375	61.2543	23.4375	62.31	23.4375	62.0362	23.4375	62.7001	23.4375	62.5798	23.4375	62.9409	23.4375	62.8997	23.4375	63.0138
26.3672	58.6739	26.3672	58.5822	26.3672	58.7621	26.3672	58.5294	26.3672	58.8127	26.3672	58.5605	26.3672	58.8033	26.3672	58.7148	26.3672	58.7293	26.3672	59.0162	26.3672	58.6131	26.3672	59.4666	26.3672	58.519	26.3672	60.0464	26.3672	58.5605	26.3672	60.7216	26.3672	58.873	26.3672	61.4541	26.3672	59.5341	26.3672	62.2075	26.3672	60.4952	26.3672	62.9512	26.3672	61.6112	26.3672	63.6594	26.3672	62.7294	26.3672	64.3103	26.3672	63.7419	26.3672	64.8846	26.3672	64.589	26.3672	65.3637	26.3672	65.2441	26.3672	65.7293	26.3672	65.7012	26.3672	65.9632	26.3672	65.9652	26.3672	66.0475
29.2969	62.3357	29.2969	62.2524	29.2969	62.4201	29.2969	62.1995	29.2969	62.4821	29.2969	62.2086	29.2969	62.5076	29.2969	62.3085	29.2969	62.4957	29.2969	62.5198	29.2969	62.4651	29.2969	62.8501	29.2969	62.4604	29.2969	63.2921	29.2969	62.5535	29.2969	63.8263	29.2969	62.8268	29.2969	64.4261	29.2969	63.3327	29.2969	65.0624	29.2969	64.0561	29.2969	65.7074	29.2969	64.9161	29.2969	66.3356	29.2969	65.8078	29.2969	66.9243	29.2969	66.6403	29.2969	67.4524	29.2969	67.3524	29.2969	67.9001	29.2969	67.91	29.2969	68.2483	29.2969	68.2989	29.2969	68.4786	29.2969	68.5177	29.2969	68.5735
32.2266	66.1173	32.2266	66.0709	32.2266	66.1737	32.2266	66.0519	32.2266	66.2268	32.2266	66.0792	32.2266	66.2692	32.2266	66.1702	32.2266	66.303	32.2266	66.3382	32.2266	66.3428	32.2266	66.59	32.2266	66.4177	32.2266	66.9247	32.2266	66.5694	32.2266	67.3333	32.2266	66.8418	32.2266	67.801	32.2266	67.2616	32.2266	68.3088	32.2266	67.821	32.2266	68.836	32.2266	68.476	32.2266	69.3614	32.2266	69.1618	32.2266	69.864	32.2266	69.8142	32.2266	70.3236	32.2266	70.382	32.2266	70.7203	32.2266	70.8315	32.2266	71.0349	32.2266	71.1447	32.2266	71.2494	32.2266	71.3157	32.2266	71.3475
35.1563	69.7629	35.1563	69.6974	35.1563	69.8397	35.1563	69.6548	35.1563	69.9191	35.1563	69.6477	35.1563	69.9966	35.1563	69.6886	35.1563	70.0734	35.1563	69.7881	35.1563	70.1585	35.1563	69.9532	35.1563	70.2688	35.1563	70.1865	35.1563	70.4279	35.1563	70.485	35.1563	70.6605	35.1563	70.8408	35.1563	70.9829	35.1563	71.2415	35.1563	71.3936	35.1563	71.6717	35.1563	71.8698	35.1563	72.1137	35.1563	72.3723	35.1563	72.5486	35.1563	72.8565	35.1563	72.957	35.1563	73.2818	35.1563	73.3194	35.1563	73.6177	35.1563	73.6168	35.1563	73.845	35.1563	73.8316	35.1563	73.9551	35.1563	73.9483
38.0859	72.8796	38.0859	72.811	38.0859	72.9624	38.0859	72.7642	38.0859	73.0537	38.0859	72.7476	38.0859	73.1503	38.0859	72.7698	38.0859	73.2528	38.0859	72.8381	38.0859	73.366	38.0859	72.9583	38.0859	73.4997	38.0859	73.1331	38.0859	73.6667	38.0859	73.3621	38.0859	73.8805	38.0859	73.641	38.0859	74.1496	38.0859	73.9622	38.0859	74.4729	38.0859	74.3145	38.0859	74.8366	38.0859	74.6843	38.0859	75.2158	38.0859	75.0559	38.0859	75.5798	38.0859	75.4124	38.0859	75.8984	38.0859	75.7358	38.0859	76.1466	38.0859	76.0086	38.0859	76.3073	38.0859	76.2143	38.0859	76.3717	38.0859	76.3389
41.0156	75.5398	41.0156	75.4615	41.0156	75.6327	41.0156	75.403	41.0156	75.7358	41.0156	75.3703	41.0156	75.8465	41.0156	75.3692	41.0156	75.964	41.0156	75.4051	41.0156	76.0903	41.0156	75.4825	41.0156	76.2298	41.0156	75.6041	41.0156	76.3891	41.0156	75.7709	41.0156	76.575	41.0156	75.9811	41.0156	76.7923	41.0156	76.2304	41.0156	77.04	41.0156	76.5116	41.0156	77.31	41.0156	76.8146	41.0156	77.5864	41.0156	77.1272	41.0156	77.8485	41.0156	77.4349	41.0156	78.0741	41.0156	77.722	41.0156	78.2436	41.0156	77.9724	41.0156	78.3426	41.0156	78.171	41.0156	78.3633	41.0156	78.3045
43.9453	77.4112	43.9453	77.3236	43.9453	77.5128	43.9453	77.254	43.9453	77.6253	43.9453	77.2066	43.9453	77.7459	43.9453	77.1856	43.9453	77.8733	43.9453	77.1953	43.9453	78.0075	43.9453	77.2392	43.9453	78.1497	43.9453	77.3202	43.9453	78.3026	43.9453	77.4399	43.9453	78.4689	43.9453	77.5984	43.9453	78.6503	43.9453	77.7934	43.9453	78.8457	43.9453	78.0203	43.9453	79.0492	43.9453	78.2721	43.9453	79.2503	43.9453	78.539	43.9453	79.4349	43.9453	78.8088	43.9453	79.5871	43.9453	79.0678	43.9453	79.6922	43.9453	79.3016	43.9453	79.7392	43.9453	79.4962	43.9453	79.7217	43.9453	79.6392
46.875	78.6503	46.875	78.5546	46.875	78.7608	46.875	78.4768	46.875	78.883	46.875	78.4201	46.875	79.0144	46.875	78.3877	46.875	79.1526	46.875	78.3825	46.875	79.2959	46.875	78.4074	46.875	79.4433	46.875	78.4646	46.875	79.5946	46.875	78.5557	46.875	79.7496	46.875	78.681	46.875	79.908	46.875	78.8395	46.875	80.0678	46.875	79.0282	46.875	80.2246	46.875	79.2419	46.875	80.3712	46.875	79.473	46.875	80.4979	46.875	79.7117	46.875	80.5936	46.875	79.9467	46.875	80.6482	46.875	80.1651	46.875	80.6535	46.875	80.3547	46.875	80.6055	46.875	80.5043
49.8047	79.4452	49.8047	79.3428	49.8047	79.5623	49.8047	79.2577	49.8047	79.6913	49.8047	79.1921	49.8047	79.8294	49.8047	79.1485	49.8047	79.9737	49.8047	79.1288	49.8047	80.1212	49.8047	79.1352	49.8047	80.2694	49.8047	79.1695	49.8047	80.4158	49.8047	79.2331	49.8047	80.5586	49.8047	79.3268	49.8047	80.6955	49.8047	79.4504	49.8047	80.8243	49.8047	79.6025	49.8047	80.9412	49.8047	79.7797	49.8047	81.0413	49.8047	79.9767	49.8047	81.1181	49.8047	80.186	49.8047	81.1645	49.8047	80.3983	49.8047	81.1738	49.8047	80.6029	49.8047	81.1411	49.8047	80.7886	49.8047	81.0644	49.8047	80.9451
52.7344	79.9412	52.7344	79.8339	52.7344	80.0636	52.7344	79.7439	52.7344	80.1985	52.7344	79.6729	52.7344	80.3429	52.7344	79.6225	52.7344	80.4932	52.7344	79.5943	52.7344	80.6457	52.7344	79.5895	52.7344	80.7964	52.7344	79.6095	52.7344	80.9415	52.7344	79.6555	52.7344	81.0773	52.7344	79.7283	52.7344	81.2008	52.7344	79.8282	52.7344	81.3088	52.7344	79.9546	52.7344	81.3981	52.7344	80.1055	52.7344	81.465	52.7344	80.2771	52.7344	81.5053	52.7344	80.464	52.7344	81.5148	52.7344	80.6586	52.7344	81.4896	52.7344	80.8518	52.7344	81.4276	52.7344	81.0339	52.7344	81.3287	52.7344	81.1955
55.6641	80.3268	55.6641	80.2136	55.6641	80.4551	55.6641	80.1175	55.6641	80.596	55.6641	80.0399	55.6641	80.7463	55.6641	79.9819	55.6641	80.9018	55.6641	79.9445	55.6641	81.0582	55.6641	79.9284	55.6641	81.2103	55.6641	79.9346	55.6641	81.3533	55.6641	79.9641	55.6641	81.4825	55.6641	80.0176	55.6641	81.5937	55.6641	80.096	55.6641	81.6833	55.6641	80.1992	55.6641	81.7484	55.6641	80.3264	55.6641	81.786	55.6641	80.4756	55.6641	81.7939	55.6641	80.6427	55.6641	81.77	55.6641	80.8221	55.6641	81.7131	55.6641	81.0063	55.6641	81.6232	55.6641	81.1867	55.6641	81.5024	55.6641	81.3548
58.5938	80.5992	58.5938	80.4831	58.5938	80.7306	58.5938	80.3843	58.5938	80.8749	58.5938	80.3038	58.5938	81.0286	58.5938	80.2423	58.5938	81.1871	58.5938	80.2003	58.5938	81.3454	58.5938	80.178	58.5938	81.4977	58.5938	80.1759	58.5938	81.6383	58.5938	80.1946	58.5938	81.7618	58.5938	80.2347	58.5938	81.8632	58.5938	80.297	58.5938	81.9387	58.5938	80.3821	58.5938	81.9852	58.5938	80.4899	58.5938	82.0009	58.5938	80.6195	58.5938	81.9845	58.5938	80.7685	58.5938	81.9357	58.5938	80.9328	58.5938	81.8553	58.5938	81.1066	58.5938	81.7453	58.5938	81.2826	58.5938	81.6093	58.5938	81.4528
61.5234	80.8513	61.5234	80.7309	61.5234	80.9869	61.5234	80.6275	61.5234	81.1353	61.5234	80.5421	61.5234	81.2926	61.5234	80.475	61.5234	81.454	61.5234	80.4262	61.5234	81.614	61.5234	80.3957	61.5234	81.7662	61.5234	80.3836	61.5234	81.9041	61.5234	80.3902	61.5234	82.0218	61.5234	80.4161	61.5234	82.1137	61.5234	80.4623	61.5234	82.1757	61.5234	80.5298	61.5234	82.2048	61.5234	80.6193	61.5234	82.1995	61.5234	80.7312	61.5234	82.1597	61.5234	80.8645	61.5234	82.0866	61.5234	81.0164	61.5234	81.9826	61.5234	81.1826	61.5234	81.8517	61.5234	81.3569	61.5234	81.6992	61.5234	81.5317
64.4531	81.0113	64.4531	80.8856	64.4531	81.1513	64.4531	80.7761	64.4531	81.3029	64.4531	80.6834	64.4531	81.4623	64.4531	80.6079	64.4531	81.6244	64.4531	80.5494	64.4531	81.7832	64.4531	80.5076	64.4531	81.9319	64.4531	80.4825	64.4531	82.0639	64.4531	80.4743	64.4531	82.1725	64.4531	80.4837	64.4531	82.2521	64.4531	80.5118	64.4531	82.2983	64.4531	80.5602	64.4531	82.3084	64.4531	80.6306	64.4531	82.2813	64.4531	80.7243	64.4531	82.2178	64.4531	80.8416	64.4531	82.1203	64.4531	80.9814	64.4531	81.9929	64.4531	81.1404	64.4531	81.8412	64.4531	81.3134	64.4531	81.672	64.4531	81.4933
67.3828	81.2433	67.3828	81.1128	67.3828	81.3874	67.3828	80.9975	67.3828	81.5423	67.3828	80.8982	67.3828	81.7041	67.3828	80.8149	67.3828	81.8674	67.3828	80.7472	67.3828	82.0261	67.3828	80.6948	67.3828	82.1731	67.3828	80.6575	67.3828	82.3012	67.3828	80.6356	67.3828	82.4035	67.3828	80.63	67.3828	82.474	67.3828	80.6422	67.3828	82.5081	67.3828	80.6745	67.3828	82.5033	67.3828	80.7293	67.3828	82.4587	67.3828	80.809	67.3828	82.3758	67.3828	80.915	67.3828	82.2579	67.3828	81.0471	67.3828	82.1104	67.3828	81.203	67.3828	81.9401	67.3828	81.3779	67.3828	81.7552	67.3828	81.5648
70.3125	81.4346	70.3125	81.299	70.3125	81.5846	70.3125	81.1797	70.3125	81.746	70.3125	81.0776	70.3125	81.9142	70.3125	80.9927	70.3125	82.0833	70.3125	80.9245	70.3125	82.2467	70.3125	80.8724	70.3125	82.3967	70.3125	80.836	70.3125	82.5259	70.3125	80.8152	70.3125	82.6273	70.3125	80.8109	70.3125	82.6949	70.3125	80.8242	70.3125	82.7245	70.3125	80.8572	70.3125	82.7138	70.3125	80.9122	70.3125	82.6625	70.3125	80.9914	70.3125	82.5728	70.3125	81.0964	70.3125	82.4485	70.3125	81.2271	70.3125	82.2954	70.3125	81.3814	70.3125	82.1209	70.3125	81.5552	70.3125	81.9334	70.3125	81.7418
73.2422	81.6244	73.2422	81.4869	73.2422	81.777	73.2422	81.3666	73.2422	81.9412	73.2422	81.2645	73.2422	82.1122	73.2422	81.1805	73.2422	82.2841	73.2422	81.1143	73.2422	82.4499	73.2422	81.0648	73.2422	82.602	73.2422	81.0313	73.2422	82.7327	73.2422	81.0133	73.2422	82.8348	73.2422	81.0109	73.2422	82.9023	73.2422	81.0249	73.2422	82.9306	73.2422	81.057	73.2422	82.9172	73.2422	81.1093	73.2422	82.8618	73.2422	81.1841	73.2422	82.7666	73.2422	81.2835	73.2422	82.6361	73.2422	81.4081	73.2422	82.4767	73.2422	81.5571	73.2422	82.2968	73.2422	81.7272	73.2422	82.1055	73.2422	81.9126
76.1719	81.8625	76.1719	81.7168	76.1719	82.0225	76.1719	81.5879	76.1719	82.1929	76.1719	81.4772	76.1719	82.3686	76.1719	81.385	76.1719	82.5431	76.1719	81.3109	76.1719	82.7092	76.1719	81.2541	76.1719	82.859	76.1719	81.2136	76.1719	82.9847	76.1719	81.1887	76.1719	83.079	76.1719	81.1791	76.1719	83.136	76.1719	81.1854	76.1719	83.1513	76.1719	81.2091	76.1719	83.1228	76.1719	81.2522	76.1719	83.0508	76.1719	81.3174	76.1719	82.9384	76.1719	81.4074	76.1719	82.7907	76.1719	81.524	76.1719	82.6155	76.1719	81.6672	76.1719	82.4221	76.1719	81.8348	76.1719	82.2207	76.1719	82.0218
79.1016	81.9571	79.1016	81.8143	79.1016	82.1154	79.1016	81.6892	79.1016	82.2854	79.1016	81.5832	79.1016	82.462	79.1016	81.4963	79.1016	82.639	79.1016	81.428	79.1016	82.809	79.1016	81.3772	79.1016	82.9642	79.1016	81.3427	79.1016	83.0966	79.1016	81.3235	79.1016	83.1988	79.1016	81.3192	79.1016	83.2643	79.1016	81.3302	79.1016	83.2884	79.1016	81.3576	79.1016	83.2684	79.1016	81.4037	79.1016	83.2039	79.1016	81.4712	79.1016	83.0975	79.1016	81.5631	79.1016	82.954	79.1016	81.6813	79.1016	82.7811	79.1016	81.8264	79.1016	82.5881	79.1016	81.9961	79.1016	82.3858	79.1016	82.1852
82.0313	82.3419	82.0313	82.199	82.0313	82.4976	82.0313	82.0714	82.0313	82.6622	82.0313	81.9604	82.0313	82.8303	82.0313	81.8662	82.0313	82.9956	82.0313	81.7879	82.0313	83.1509	82.0313	81.7243	82.0313	83.2885	82.0313	81.6742	82.0313	83.4009	82.0313	81.6367	82.0313	83.4812	82.0313	81.6113	82.0313	83.5236	82.0313	81.5991	82.0313	83.524	82.0313	81.6019	82.0313	83.4804	82.0313	81.6227	82.0313	83.3932	82.0313	81.6654	82.0313	83.2656	82.0313	81.7341	82.0313	83.1035	82.0313	81.8321	82.0313	82.9152	82.0313	81.9608	82.0313	82.7113	82.0313	82.119	82.0313	82.5032	82.0313	82.3024
84.9609	82.6251	84.9609	82.4741	84.9609	82.7815	84.9609	82.3312	84.9609	82.9396	84.9609	82.198	84.9609	83.0944	84.9609	82.0749	84.9609	83.2399	84.9609	81.9618	84.9609	83.3693	84.9609	81.8581	84.9609	83.4755	84.9609	81.7633	84.9609	83.5513	84.9609	81.6772	84.9609	83.5905	84.9609	81.6007	84.9609	83.5877	84.9609	81.5356	84.9609	83.5394	84.9609	81.4853	84.9609	83.4445	84.9609	81.4546	84.9609	83.3047	84.9609	81.4494	84.9609	83.1246	84.9609	81.4761	84.9609	82.9122	84.9609	81.5405	84.9609	82.6783	84.9609	81.6465	84.9609	82.4359	84.9609	81.7947	84.9609	82.1991	84.9609	81.9815
87.8906	82.5759	87.8906	82.4333	87.8906	82.7299	87.8906	82.3039	87.8906	82.8922	87.8906	82.1881	87.8906	83.0577	87.8906	82.0855	87.8906	83.2204	87.8906	81.9948	87.8906	83.3727	87.8906	81.9148	87.8906	83.5066	87.8906	81.8443	87.8906	83.6138	87.8906	81.7828	87.8906	83.6866	87.8906	81.731	87.8906	83.7184	87.8906	81.6908	87.8906	83.7048	87.8906	81.6654	87.8906	83.6435	87.8906	81.6597	87.8906	83.535	87.8906	81.6793	87.8906	83.3832	87.8906	81.7299	87.8906	83.1948	87.8906	81.8164	87.8906	82.9796	87.8906	81.9414	87.8906	82.7497	87.8906	82.104	87.8906	82.5185	87.8906	82.2993
90.8203	82.2243	90.8203	82.0769	90.8203	82.3933	90.8203	81.9543	90.8203	82.5792	90.8203	81.8577	90.8203	82.7754	90.8203	81.7867	90.8203	82.9742	90.8203	81.7393	90.8203	83.1671	90.8203	81.7129	90.8203	83.3451	90.8203	81.7046	90.8203	83.4995	90.8203	81.7117	90.8203	83.6223	90.8203	81.7322	90.8203	83.7066	90.8203	81.7654	90.8203	83.7473	90.8203	81.8116	90.8203	83.7411	90.8203	81.8728	90.8203	83.6876	90.8203	81.9516	90.8203	83.589	90.8203	82.0513	90.8203	83.4504	90.8203	82.1744	90.8203	83.2798	90.8203	82.3222	90.8203	83.0875	90.8203	82.4934	90.8203	82.8849	90.8203	82.6834
93.75	82.8339	93.75	82.6739	93.75	83.005	93.75	82.529	93.75	83.1819	93.75	82.4018	93.75	83.3587	93.75	82.2935	93.75	83.5286	93.75	82.2044	93.75	83.6846	93.75	82.1332	93.75	83.8196	93.75	82.0784	93.75	83.9267	93.75	82.0385	93.75	83.9995	93.75	82.0121	93.75	84.0327	93.75	81.9991	93.75	84.0224	93.75	82.0003	93.75	83.9663	93.75	82.0183	93.75	83.8648	93.75	82.0566	93.75	83.721	93.75	82.1198	93.75	83.5413	93.75	82.2123	93.75	83.3351	93.75	82.3372	93.75	83.1144	93.75	82.495	93.75	82.8926	93.75	82.6826
96.6797	83.1147	96.6797	82.9551	96.6797	83.2806	96.6797	82.8045	96.6797	83.4483	96.6797	82.6644	96.6797	83.6125	96.6797	82.5352	96.6797	83.7665	96.6797	82.4162	96.6797	83.9029	96.6797	82.3064	96.6797	84.0144	96.6797	82.2045	96.6797	84.0933	96.6797	82.1099	96.6797	84.1331	96.6797	82.0231	96.6797	84.1282	96.6797	81.9462	96.6797	84.0747	96.6797	81.8829	96.6797	83.9713	96.6797	81.8389	96.6797	83.8191	96.6797	81.8216	96.6797	83.6226	96.6797	81.839	96.6797	83.3899	96.6797	81.8988	96.6797	83.1325	96.6797	82.0065	96.6797	82.8651	96.6797	82.1634	96.6797	82.6042	96.6797	82.3657
102.539	83.2816	102.539	83.1105	102.539	83.463	102.539	82.9541	102.539	83.6488	102.539	82.815	102.539	83.8317	102.539	82.6939	102.539	84.0039	102.539	82.5901	102.539	84.157	102.539	82.5017	102.539	84.2832	102.539	82.4264	102.539	84.375	102.539	82.3622	102.539	84.4262	102.539	82.308	102.539	84.4319	102.539	82.2644	102.539	84.3893	102.539	82.2334	102.539	84.2976	102.539	82.2194	102.539	84.1588	102.539	82.228	102.539	83.9777	102.539	82.266	102.539	83.7621	102.539	82.3398	102.539	83.5231	102.539	82.454	102.539	83.2741	102.539	82.6099	102.539	83.0298	102.539	82.8045
105.469	83.2887	105.469	83.1144	105.469	83.4728	105.469	82.9547	105.469	83.6605	105.469	82.8126	105.469	83.8446	105.469	82.6895	105.469	84.0174	105.469	82.5849	105.469	84.171	105.469	82.4974	105.469	84.2977	105.469	82.4247	105.469	84.3906	105.469	82.3647	105.469	84.4436	105.469	82.3163	105.469	84.4523	105.469	82.2793	105.469	84.4137	105.469	82.2559	105.469	84.3268	105.469	82.2495	105.469	84.1932	105.469	82.2654	105.469	84.0174	105.469	82.31	105.469	83.8068	105.469	82.389	105.469	83.5722	105.469	82.5069	105.469	83.3265	105.469	82.665	105.469	83.0845	105.469	82.8601
108.398	83.2934	108.398	83.1153	108.398	83.4806	108.398	82.9516	108.398	83.6704	108.398	82.8058	108.398	83.8553	108.398	82.6797	108.398	84.0275	108.398	82.5731	108.398	84.1794	108.398	82.4846	108.398	84.3035	108.398	82.412	108.398	84.3933	108.398	82.3532	108.398	84.4432	108.398	82.3067	108.398	84.449	108.398	82.2722	108.398	84.4081	108.398	82.2514	108.398	84.3198	108.398	82.2477	108.398	84.1857	108.398	82.266	108.398	84.0102	108.398	82.3121	108.398	83.8005	108.398	82.3919	108.398	83.5672	108.398	82.5097	108.398	83.3233	108.398	82.6669	108.398	83.0831	108.398	82.8605
