"SPL Horizontal"																																																																							
"On-Axis"		"10°"		"-10°"		"20°"		"-20°"		"30°"		"-30°"		"40°"		"-40°"		"50°"		"-50°"		"60°"		"-60°"		"70°"		"-70°"		"80°"		"-80°"		"90°"		"-90°"		"100°"		"-100°"		"110°"		"-110°"		"120°"		"-120°"		"130°"		"-130°"		"140°"		"-140°"		"150°"		"-150°"		"160°"		"-160°"		"170°"		"-170°"		"180°"	
"Frequency [Hz]"	"Sound Pessure Level [dB]  / [2.83V 1m] "	"Frequency [Hz]"	"Sound Pessure Level [dB]  / [2.83V 1m] "	"Frequency [Hz]"	"Sound Pessure Level [dB]  / [2.83V 1m] "	"Frequency [Hz]"	"Sound Pessure Level [dB]  / [2.83V 1m] "	"Frequency [Hz]"	"Sound Pessure Level [dB]  / [2.83V 1m] "	"Frequency [Hz]"	"Sound Pessure Level [dB]  / [2.83V 1m] "	"Frequency [Hz]"	"Sound Pessure Level [dB]  / [2.83V 1m] "	"Frequency [Hz]"	"Sound Pessure Level [dB]  / [2.83V 1m] "	"Frequency [Hz]"	"Sound Pessure Level [dB]  / [2.83V 1m] "	"Frequency [Hz]"	"Sound Pessure Level [dB]  / [2.83V 1m] "	"Frequency [Hz]"	"Sound Pessure Level [dB]  / [2.83V 1m] "	"Frequency [Hz]"	"Sound Pessure Level [dB]  / [2.83V 1m] "	"Frequency [Hz]"	"Sound Pessure Level [dB]  / [2.83V 1m] "	"Frequency [Hz]"	"Sound Pessure Level [dB]  / [2.83V 1m] "	"Frequency [Hz]"	"Sound Pessure Level [dB]  / [2.83V 1m] "	"Frequency [Hz]"	"Sound Pessure Level [dB]  / [2.83V 1m] "	"Frequency [Hz]"	"Sound Pessure Level [dB]  / [2.83V 1m] "	"Frequency [Hz]"	"Sound Pessure Level [dB]  / [2.83V 1m] "	"Frequency [Hz]"	"Sound Pessure Level [dB]  / [2.83V 1m] "	"Frequency [Hz]"	"Sound Pessure Level [dB]  / [2.83V 1m] "	"Frequency [Hz]"	"Sound Pessure Level [dB]  / [2.83V 1m] "	"Frequency [Hz]"	"Sound Pessure Level [dB]  / [2.83V 1m] "	"Frequency [Hz]"	"Sound Pessure Level [dB]  / [2.83V 1m] "	"Frequency [Hz]"	"Sound Pessure Level [dB]  / [2.83V 1m] "	"Frequency [Hz]"	"Sound Pessure Level [dB]  / [2.83V 1m] "	"Frequency [Hz]"	"Sound Pessure Level [dB]  / [2.83V 1m] "	"Frequency [Hz]"	"Sound Pessure Level [dB]  / [2.83V 1m] "	"Frequency [Hz]"	"Sound Pessure Level [dB]  / [2.83V 1m] "	"Frequency [Hz]"	"Sound Pessure Level [dB]  / [2.83V 1m] "	"Frequency [Hz]"	"Sound Pessure Level [dB]  / [2.83V 1m] "	"Frequency [Hz]"	"Sound Pessure Level [dB]  / [2.83V 1m] "	"Frequency [Hz]"	"Sound Pessure Level [dB]  / [2.83V 1m] "	"Frequency [Hz]"	"Sound Pessure Level [dB]  / [2.83V 1m] "	"Frequency [Hz]"	"Sound Pessure Level [dB]  / [2.83V 1m] "	"Frequency [Hz]"	"Sound Pessure Level [dB]  / [2.83V 1m] "	"Frequency [Hz]"	"Sound Pessure Level [dB]  / [2.83V 1m] "
20.5078	50.2286	20.5078	50.0549	20.5078	50.1363	20.5078	49.6103	20.5078	49.7727	20.5078	48.8848	20.5078	49.1243	20.5078	47.8846	20.5078	48.1821	20.5078	46.7025	20.5078	46.991	20.5078	45.7053	20.5078	45.8062	20.5078	45.6633	20.5078	45.3421	20.5078	46.9948	20.5078	46.3286	20.5078	49.0771	20.5078	48.3607	20.5078	51.2143	20.5078	50.5902	20.5078	53.1285	20.5078	52.6187	20.5078	54.7591	20.5078	54.3522	20.5078	56.109	20.5078	55.7899	20.5078	57.1925	20.5078	56.949	20.5078	58.0211	20.5078	57.8446	20.5078	58.6019	20.5078	58.487	20.5078	58.9384	20.5078	58.8817	20.5078	59.0317
21.9727	52.1991	21.9727	52.0517	21.9727	52.0908	21.9727	51.6459	21.9727	51.7211	21.9727	50.9763	21.9727	51.078	21.9727	50.0535	21.9727	50.1564	21.9727	48.967	21.9727	49.0074	21.9727	48.0357	21.9727	47.8837	21.9727	47.9175	21.9727	47.4512	21.9727	49.0432	21.9727	48.3768	21.9727	50.955	21.9727	50.3109	21.9727	53.001	21.9727	52.4673	21.9727	54.8718	21.9727	54.4492	21.9727	56.4818	21.9727	56.1515	21.9727	57.8219	21.9727	57.5666	21.9727	58.9009	21.9727	58.708	21.9727	59.7282	21.9727	59.5894	21.9727	60.31	21.9727	60.2199	21.9727	60.6495	21.9727	60.6052	21.9727	60.748
23.4375	53.4593	23.4375	53.3209	23.4375	53.3603	23.4375	52.9467	23.4375	53.0215	23.4375	52.3443	23.4375	52.4428	23.4375	51.5518	23.4375	51.6453	23.4375	50.7007	23.4375	50.7254	23.4375	50.1194	23.4375	49.9693	23.4375	50.3008	23.4375	49.9064	23.4375	51.4376	23.4375	50.8907	23.4375	53.1553	23.4375	52.6081	23.4375	54.991	23.4375	54.5179	23.4375	56.6996	23.4375	56.313	23.4375	58.1943	23.4375	57.8862	23.4375	59.4536	23.4375	59.2128	23.4375	60.4763	23.4375	60.2932	23.4375	61.265	23.4375	61.1329	23.4375	61.8219	23.4375	61.7361	23.4375	62.1478	23.4375	62.1055	23.4375	62.2425
24.9023	55.4811	24.9023	55.3821	24.9023	55.3915	24.9023	55.1006	24.9023	55.1147	24.9023	54.6561	24.9023	54.6637	24.9023	54.1004	24.9023	54.0798	24.9023	53.5541	24.9023	53.4702	24.9023	53.2434	24.9023	53.056	24.9023	53.4496	24.9023	53.1484	24.9023	54.2956	24.9023	53.9288	24.9023	55.6134	24.9023	55.25	24.9023	57.1171	24.9023	56.7975	24.9023	58.5954	24.9023	58.3306	24.9023	59.9391	24.9023	59.7264	24.9023	61.1004	24.9023	60.9336	24.9023	62.0597	24.9023	61.9329	24.9023	62.8086	24.9023	62.7171	24.9023	63.3425	24.9023	63.2831	24.9023	63.6583	24.9023	63.6291	24.9023	63.7542
26.3672	57.5315	26.3672	57.4445	26.3672	57.4615	26.3672	57.2064	26.3672	57.2375	26.3672	56.8361	26.3672	56.8745	26.3672	56.379	26.3672	56.4112	26.3672	55.9298	26.3672	55.9336	26.3672	55.6535	26.3672	55.6	26.3672	55.7574	26.3672	55.6262	26.3672	56.3674	26.3672	56.1682	26.3672	57.4147	26.3672	57.1832	26.3672	58.6972	26.3672	58.4686	26.3672	60.0221	26.3672	59.8165	26.3672	61.2661	26.3672	61.0909	26.3672	62.3636	26.3672	62.2202	26.3672	63.2821	26.3672	63.1695	26.3672	64.0049	26.3672	63.9218	26.3672	64.5229	26.3672	64.468	26.3672	64.8303	26.3672	64.803	26.3672	64.9241
27.832	59.101	27.832	59.0289	27.832	59.0412	27.832	58.832	27.832	58.8534	27.832	58.5318	27.832	58.5549	27.832	58.1748	27.832	58.1866	27.832	57.8471	27.832	57.8281	27.832	57.6832	27.832	57.6107	27.832	57.8366	27.832	57.6973	27.832	58.3962	27.832	58.1993	27.832	59.3162	27.832	59.0903	27.832	60.4503	27.832	60.2255	27.832	61.6441	27.832	61.4394	27.832	62.7859	27.832	62.6098	27.832	63.8082	27.832	63.6632	27.832	64.6731	27.832	64.559	27.832	65.359	27.832	65.2748	27.832	65.8529	27.832	65.7974	27.832	66.1468	27.832	66.1192	27.832	66.2361
29.2969	60.734	29.2969	60.674	29.2969	60.6834	29.2969	60.5109	29.2969	60.5265	29.2969	60.2662	29.2969	60.2805	29.2969	59.9829	29.2969	59.9836	29.2969	59.735	29.2969	59.7046	29.2969	59.6304	29.2969	59.5497	29.2969	59.787	29.2969	59.6446	29.2969	60.2758	29.2969	60.0785	29.2969	61.072	29.2969	60.8432	29.2969	62.0697	29.2969	61.8368	29.2969	63.1429	29.2969	62.9259	29.2969	64.1894	29.2969	63.9994	29.2969	65.1408	29.2969	64.9821	29.2969	65.9544	29.2969	65.8283	29.2969	66.6042	29.2969	66.5105	29.2969	67.074	29.2969	67.012	29.2969	67.3536	29.2969	67.3227	29.2969	67.4371
30.7617	62.3609	30.7617	62.3189	30.7617	62.3147	30.7617	62.1958	30.7617	62.1848	30.7617	62.0117	30.7617	61.9886	30.7617	61.8045	30.7617	61.7614	30.7617	61.6353	30.7617	61.5624	30.7617	61.5873	30.7617	61.4762	30.7617	61.7482	30.7617	61.5973	30.7617	62.1735	30.7617	61.9918	30.7617	62.853	30.7617	62.658	30.7617	63.715	30.7617	63.5249	30.7617	64.6622	30.7617	64.4899	30.7617	65.6056	30.7617	65.4578	30.7617	66.4788	30.7617	66.3576	30.7617	67.2361	30.7617	67.1414	30.7617	67.8477	30.7617	67.7782	30.7617	68.2939	30.7617	68.2484	30.7617	68.5619	30.7617	68.5394	30.7617	68.6446
32.2266	63.9403	32.2266	63.9075	32.2266	63.9052	32.2266	63.8132	32.2266	63.8068	32.2266	63.6758	32.2266	63.6612	32.2266	63.5283	32.2266	63.4995	32.2266	63.4209	32.2266	63.3709	32.2266	63.4185	32.2266	63.3411	32.2266	63.5872	32.2266	63.4804	32.2266	63.9691	32.2266	63.838	32.2266	64.5607	32.2266	64.4165	32.2266	65.3123	32.2266	65.1679	32.2266	66.149	32.2266	66.0152	32.2266	66.9959	32.2266	66.8792	32.2266	67.7915	32.2266	67.6947	32.2266	68.4901	32.2266	68.414	32.2266	69.0597	32.2266	69.0037	32.2266	69.4782	32.2266	69.4415	32.2266	69.7313	32.2266	69.7131	32.2266	69.8105
33.6914	65.5418	33.6914	65.5138	33.6914	65.5153	33.6914	65.4364	33.6914	65.4381	33.6914	65.3253	33.6914	65.3247	33.6914	65.2079	33.6914	65.2011	33.6914	65.1251	33.6914	65.1073	33.6914	65.1287	33.6914	65.0953	33.6914	65.2722	33.6914	65.2205	33.6914	65.5931	33.6914	65.5239	33.6914	66.0958	33.6914	66.0137	33.6914	66.7472	33.6914	66.6593	33.6914	67.4888	33.6914	67.4022	33.6914	68.2554	33.6914	68.1756	33.6914	68.9886	33.6914	68.9192	33.6914	69.642	33.6914	69.585	33.6914	70.1806	33.6914	70.1372	33.6914	70.5797	33.6914	70.5506	33.6914	70.8227	33.6914	70.808	33.6914	70.8998
35.1563	66.854	35.1563	66.8304	35.1563	66.8356	35.1563	66.7699	35.1563	66.7788	35.1563	66.6867	35.1563	66.6966	35.1563	66.6052	35.1563	66.6119	35.1563	66.5605	35.1563	66.5588	35.1563	66.5954	35.1563	66.5798	35.1563	66.7528	35.1563	66.7193	35.1563	67.0621	35.1563	67.0098	35.1563	67.5271	35.1563	67.4589	35.1563	68.1217	35.1563	68.0436	35.1563	68.7985	35.1563	68.7173	35.1563	69.5019	35.1563	69.4238	35.1563	70.1795	35.1563	70.1093	35.1563	70.7873	35.1563	70.7282	35.1563	71.2912	35.1563	71.2454	35.1563	71.6659	35.1563	71.6348	35.1563	71.8943	35.1563	71.8786	35.1563	71.9663
36.6211	68.1955	36.6211	68.1794	36.6211	68.1794	36.6211	68.1356	36.6211	68.1345	36.6211	68.0763	36.6211	68.0719	36.6211	68.0226	36.6211	68.0116	36.6211	68.0035	36.6211	67.9823	36.6211	68.054	36.6211	68.0191	36.6211	68.209	36.6211	68.1583	36.6211	68.4927	36.6211	68.4267	36.6211	68.9101	36.6211	68.832	36.6211	69.4422	36.6211	69.3575	36.6211	70.0513	36.6211	69.9659	36.6211	70.6903	36.6211	70.6095	36.6211	71.3118	36.6211	71.2398	36.6211	71.8742	36.6211	71.814	36.6211	72.3437	36.6211	72.2972	36.6211	72.6946	36.6211	72.663	36.6211	72.909	36.6211	72.8931	36.6211	72.9763
38.0859	69.3551	38.0859	69.3451	38.0859	69.3423	38.0859	69.3164	38.0859	69.3096	38.0859	69.2802	38.0859	69.2672	38.0859	69.2545	38.0859	69.2323	38.0859	69.2642	38.0859	69.2295	38.0859	69.3383	38.0859	69.2884	38.0859	69.5047	38.0859	69.4384	38.0859	69.7827	38.0859	69.7014	38.0859	70.1758	38.0859	70.0835	38.0859	70.6689	38.0859	70.5711	38.0859	71.2303	38.0859	71.1334	38.0859	71.82	38.0859	71.7293	38.0859	72.3957	38.0859	72.3156	38.0859	72.9192	38.0859	72.8525	38.0859	73.358	38.0859	73.3067	38.0859	73.6869	38.0859	73.6521	38.0859	73.8879	38.0859	73.8703	38.0859	73.9502
39.5508	70.6145	39.5508	70.6049	39.5508	70.6081	39.5508	70.5825	39.5508	70.5881	39.5508	70.557	39.5508	70.5635	39.5508	70.5439	39.5508	70.549	39.5508	70.5643	39.5508	70.5653	39.5508	70.6426	39.5508	70.6366	39.5508	70.8022	39.5508	70.787	39.5508	71.0599	39.5508	71.0342	39.5508	71.4194	39.5508	71.3839	39.5508	71.869	39.5508	71.8259	39.5508	72.3826	39.5508	72.3351	39.5508	72.9252	39.5508	72.8769	39.5508	73.4586	39.5508	73.4132	39.5508	73.947	39.5508	73.9073	39.5508	74.3589	39.5508	74.3273	39.5508	74.6696	39.5508	74.6476	39.5508	74.8609	39.5508	74.8496	39.5508	74.9221
41.0156	71.7911	41.0156	71.7824	41.0156	71.7854	41.0156	71.7621	41.0156	71.7675	41.0156	71.7384	41.0156	71.745	41.0156	71.7246	41.0156	71.7307	41.0156	71.7389	41.0156	71.7421	41.0156	71.8023	41.0156	71.8005	41.0156	71.936	41.0156	71.9269	41.0156	72.1559	41.0156	72.1384	41.0156	72.4677	41.0156	72.4418	41.0156	72.8638	41.0156	72.8308	41.0156	73.3232	41.0156	73.2856	41.0156	73.8154	41.0156	73.7761	41.0156	74.3053	41.0156	74.2675	41.0156	74.7584	41.0156	74.7248	41.0156	75.1437	41.0156	75.1166	41.0156	75.436	41.0156	75.4171	41.0156	75.6169	41.0156	75.6072	41.0156	75.6752
42.4805	72.674	42.4805	72.6731	42.4805	72.6704	42.4805	72.6701	42.4805	72.6639	42.4805	72.6725	42.4805	72.6614	42.4805	72.6919	42.4805	72.6737	42.4805	72.7436	42.4805	72.716	42.4805	72.8445	42.4805	72.8052	42.4805	73.0107	42.4805	72.9584	42.4805	73.2533	42.4805	73.188	42.4805	73.5746	42.4805	73.4982	42.4805	73.9664	42.4805	73.8824	42.4805	74.4095	42.4805	74.3227	42.4805	74.8774	42.4805	74.793	42.4805	75.3395	42.4805	75.2623	42.4805	75.7649	42.4805	75.6989	42.4805	76.1257	42.4805	76.0738	42.4805	76.3983	42.4805	76.3627	42.4805	76.5654	42.4805	76.5473	42.4805	76.6162
43.9453	73.837	43.9453	73.8383	43.9453	73.8353	43.9453	73.8415	43.9453	73.835	43.9453	73.8528	43.9453	73.8416	43.9453	73.882	43.9453	73.8646	43.9453	73.9418	43.9453	73.9167	43.9453	74.0463	43.9453	74.0122	43.9453	74.2086	43.9453	74.165	43.9453	74.4379	43.9453	74.3854	43.9453	74.7363	43.9453	74.6768	43.9453	75.0971	43.9453	75.0335	43.9453	75.5043	43.9453	75.4402	43.9453	75.935	43.9453	75.874	43.9453	76.3621	43.9453	76.3072	43.9453	76.7572	43.9453	76.711	43.9453	77.0942	43.9453	77.0583	43.9453	77.3503	43.9453	77.3259	43.9453	77.5086	43.9453	77.4962	43.9453	77.5584
45.4102	75.0404	45.4102	75.0426	45.4102	75.0404	45.4102	75.0489	45.4102	75.0441	45.4102	75.0643	45.4102	75.0563	45.4102	75.0969	45.4102	75.0847	45.4102	75.157	45.4102	75.1398	45.4102	75.2564	45.4102	75.2334	45.4102	75.4061	45.4102	75.377	45.4102	75.6141	45.4102	75.5794	45.4102	75.883	45.4102	75.8437	45.4102	76.2081	45.4102	76.1658	45.4102	76.5764	45.4102	76.5334	45.4102	76.9685	45.4102	76.9268	45.4102	77.3601	45.4102	77.3219	45.4102	77.725	45.4102	77.6921	45.4102	78.0382	45.4102	78.0122	45.4102	78.2777	45.4102	78.2597	45.4102	78.4266	45.4102	78.4174	45.4102	78.4743
46.875	75.8702	46.875	75.875	46.875	75.8699	46.875	75.8859	46.875	75.8752	46.875	75.9072	46.875	75.8903	46.875	75.946	46.875	75.922	46.875	76.0112	46.875	75.9791	46.875	76.1128	46.875	76.072	46.875	76.2602	46.875	76.2105	46.875	76.4604	46.875	76.4024	46.875	76.7153	46.875	76.6507	46.875	77.0209	46.875	76.952	46.875	77.3656	46.875	77.2956	46.875	77.7319	46.875	77.6641	46.875	78.0976	46.875	78.0353	46.875	78.4384	46.875	78.3847	46.875	78.7308	46.875	78.6882	46.875	78.9538	46.875	78.9243	46.875	79.0913	46.875	79.0763	46.875	79.1332
48.3398	76.6382	48.3398	76.6478	48.3398	76.6377	48.3398	76.6678	48.3398	76.6474	48.3398	76.7016	48.3398	76.671	48.3398	76.7549	48.3398	76.7141	48.3398	76.8349	48.3398	76.7841	48.3398	76.9494	48.3398	76.8893	48.3398	77.1057	48.3398	77.0374	48.3398	77.3089	48.3398	77.2339	48.3398	77.5598	48.3398	77.4806	48.3398	77.8544	48.3398	77.7735	48.3398	78.1822	48.3398	78.1028	48.3398	78.5277	48.3398	78.4528	48.3398	78.871	48.3398	78.8036	48.3398	79.1903	48.3398	79.1331	48.3398	79.4639	48.3398	79.419	48.3398	79.6725	48.3398	79.6417	48.3398	79.801	48.3398	79.7852	48.3398	79.8395
51.2695	78.3058	51.2695	78.3125	51.2695	78.3116	51.2695	78.3326	51.2695	78.3307	51.2695	78.3684	51.2695	78.3653	51.2695	78.4234	51.2695	78.419	51.2695	78.5023	51.2695	78.4962	51.2695	78.6102	51.2695	78.6021	51.2695	78.7516	51.2695	78.7414	51.2695	78.9299	51.2695	78.9176	51.2695	79.1457	51.2695	79.1314	51.2695	79.3962	51.2695	79.3802	51.2695	79.6739	51.2695	79.6568	51.2695	79.967	51.2695	79.9497	51.2695	80.26	51.2695	80.2434	51.2695	80.5348	51.2695	80.5199	51.2695	80.7727	51.2695	80.7605	51.2695	80.9563	51.2695	80.9476	51.2695	81.0716	51.2695	81.0671	51.2695	81.1095
52.7344	79.0101	52.7344	79.0181	52.7344	79.0161	52.7344	79.0407	52.7344	79.0364	52.7344	79.0796	52.7344	79.073	52.7344	79.1378	52.7344	79.1286	52.7344	79.2188	52.7344	79.2068	52.7344	79.3267	52.7344	79.3117	52.7344	79.4652	52.7344	79.4469	52.7344	79.6367	52.7344	79.6153	52.7344	79.8416	52.7344	79.8174	52.7344	80.0771	52.7344	80.0508	52.7344	80.3369	52.7344	80.3093	52.7344	80.6103	52.7344	80.5827	52.7344	80.8834	52.7344	80.8572	52.7344	81.1395	52.7344	81.1162	52.7344	81.3613	52.7344	81.3423	52.7344	81.5324	52.7344	81.5189	52.7344	81.6395	52.7344	81.6325	52.7344	81.6738
54.1992	79.7184	54.1992	79.7281	54.1992	79.7242	54.1992	79.7538	54.1992	79.7461	54.1992	79.7967	54.1992	79.7853	54.1992	79.859	54.1992	79.8438	54.1992	79.9432	54.1992	79.9243	54.1992	80.052	54.1992	80.0296	54.1992	80.1882	54.1992	80.1625	54.1992	80.3532	54.1992	80.3245	54.1992	80.547	54.1992	80.516	54.1992	80.7671	54.1992	80.7346	54.1992	81.0078	54.1992	80.9747	54.1992	81.26	54.1992	81.2274	54.1992	81.5112	54.1992	81.4807	54.1992	81.7466	54.1992	81.7198	54.1992	81.9505	54.1992	81.9287	54.1992	82.1077	54.1992	82.0924	54.1992	82.2059	54.1992	82.198	54.1992	82.2369
55.6641	80.2743	55.6641	80.2856	55.6641	80.2788	55.6641	80.3129	55.6641	80.2996	55.6641	80.3572	55.6641	80.3376	55.6641	80.4198	55.6641	80.3945	55.6641	80.5027	55.6641	80.4722	55.6641	80.608	55.6641	80.5731	55.6641	80.7377	55.6641	80.6991	55.6641	80.8929	55.6641	80.8516	55.6641	81.0736	55.6641	81.0306	55.6641	81.2777	55.6641	81.2341	55.6641	81.5003	55.6641	81.4572	55.6641	81.7332	55.6641	81.6921	55.6641	81.9655	55.6641	81.9278	55.6641	82.1835	55.6641	82.1508	55.6641	82.3725	55.6641	82.3464	55.6641	82.5184	55.6641	82.5002	55.6641	82.6093	55.6641	82.5999	55.6641	82.6373
58.5938	81.3001	58.5938	81.3102	58.5938	81.3088	58.5938	81.3395	58.5938	81.3366	58.5938	81.3881	58.5938	81.3837	58.5938	81.4565	58.5938	81.4504	58.5938	81.5453	58.5938	81.5374	58.5938	81.655	58.5938	81.6452	58.5938	81.7861	58.5938	81.7743	58.5938	81.9382	58.5938	81.9244	58.5938	82.1105	58.5938	82.0949	58.5938	82.3003	58.5938	82.2832	58.5938	82.5033	58.5938	82.4853	58.5938	82.7129	58.5938	82.6947	58.5938	82.9198	58.5938	82.9024	58.5938	83.1131	58.5938	83.0974	58.5938	83.2805	58.5938	83.2676	58.5938	83.4099	58.5938	83.4007	58.5938	83.4911	58.5938	83.4863	58.5938	83.5173
60.0586	81.7191	60.0586	81.7308	60.0586	81.7268	60.0586	81.762	60.0586	81.7541	60.0586	81.8126	60.0586	81.801	60.0586	81.8824	60.0586	81.8675	60.0586	81.9715	60.0586	81.9535	60.0586	82.0796	60.0586	82.0591	60.0586	82.2065	60.0586	82.1839	60.0586	82.3515	60.0586	82.3275	60.0586	82.5134	60.0586	82.4886	60.0586	82.6898	60.0586	82.6649	60.0586	82.8769	60.0586	82.8525	60.0586	83.0688	60.0586	83.0459	60.0586	83.2578	60.0586	83.237	60.0586	83.4341	60.0586	83.4162	60.0586	83.5867	60.0586	83.5725	60.0586	83.7047	60.0586	83.6948	60.0586	83.7787	60.0586	83.7736	60.0586	83.8024
62.9883	82.5571	62.9883	82.5695	62.9883	82.5655	62.9883	82.6024	62.9883	82.5948	62.9883	82.6553	62.9883	82.6443	62.9883	82.7272	62.9883	82.7135	62.9883	82.8171	62.9883	82.8013	62.9883	82.9237	62.9883	82.9065	62.9883	83.0456	62.9883	83.0277	62.9883	83.1813	62.9883	83.1635	62.9883	83.3291	62.9883	83.3119	62.9883	83.4866	62.9883	83.4705	62.9883	83.6507	62.9883	83.636	62.9883	83.8168	62.9883	83.8039	62.9883	83.979	62.9883	83.9679	62.9883	84.1296	62.9883	84.1205	62.9883	84.2599	62.9883	84.2528	62.9883	84.3608	62.9883	84.356	62.9883	84.4245	62.9883	84.4221	62.9883	84.4456
64.4531	82.9137	64.4531	82.9256	64.4531	82.9234	64.4531	82.9585	64.4531	82.9543	64.4531	83.0118	64.4531	83.0059	64.4531	83.0841	64.4531	83.0771	64.4531	83.1739	64.4531	83.1663	64.4531	83.2794	64.4531	83.2719	64.4531	83.3989	64.4531	83.3919	64.4531	83.5304	64.4531	83.5244	64.4531	83.6719	64.4531	83.6672	64.4531	83.821	64.4531	83.8178	64.4531	83.9749	64.4531	83.973	64.4531	84.1296	64.4531	84.1288	64.4531	84.2798	64.4531	84.2798	64.4531	84.419	64.4531	84.4193	64.4531	84.5393	64.4531	84.5398	64.4531	84.6328	64.4531	84.6333	64.4531	84.6923	64.4531	84.6926	64.4531	84.7128
67.3828	83.4329	67.3828	83.4441	67.3828	83.4441	67.3828	83.4773	67.3828	83.4774	67.3828	83.5312	67.3828	83.5317	67.3828	83.604	67.3828	83.6052	67.3828	83.6934	67.3828	83.6958	67.3828	83.7967	67.3828	83.8007	67.3828	83.9114	67.3828	83.9172	67.3828	84.0349	67.3828	84.0425	67.3828	84.1645	67.3828	84.1739	67.3828	84.298	67.3828	84.3088	67.3828	84.4327	67.3828	84.4444	67.3828	84.5656	67.3828	84.5775	67.3828	84.6929	67.3828	84.7041	67.3828	84.8097	67.3828	84.8196	67.3828	84.9102	67.3828	84.9182	67.3828	84.9884	67.3828	84.9939	67.3828	85.0385	67.3828	85.0413	67.3828	85.0566
68.8477	83.5769	68.8477	83.5878	68.8477	83.5888	68.8477	83.621	68.8477	83.6231	68.8477	83.6751	68.8477	83.6787	68.8477	83.748	68.8477	83.7533	68.8477	83.8371	68.8477	83.8445	68.8477	83.9395	68.8477	83.9492	68.8477	84.0521	68.8477	84.0642	68.8477	84.172	68.8477	84.1864	68.8477	84.2965	68.8477	84.313	68.8477	84.4231	68.8477	84.441	68.8477	84.5494	68.8477	84.568	68.8477	84.6726	68.8477	84.6909	68.8477	84.7896	68.8477	84.8066	68.8477	84.8962	68.8477	84.9111	68.8477	84.9878	68.8477	84.9996	68.8477	85.0589	68.8477	85.0671	68.8477	85.1048	68.8477	85.109	68.8477	85.1219
