"SPL Horizontal"																																																																							
"On-Axis"		"10°"		"-10°"		"20°"		"-20°"		"30°"		"-30°"		"40°"		"-40°"		"50°"		"-50°"		"60°"		"-60°"		"70°"		"-70°"		"80°"		"-80°"		"90°"		"-90°"		"100°"		"-100°"		"110°"		"-110°"		"120°"		"-120°"		"130°"		"-130°"		"140°"		"-140°"		"150°"		"-150°"		"160°"		"-160°"		"170°"		"-170°"		"180°"	
"Frequency [Hz]"	"Sound Pessure Level [dB]  / [2.83V 1m] "	"Frequency [Hz]"	"Sound Pessure Level [dB]  / [2.83V 1m] "	"Frequency [Hz]"	"Sound Pessure Level [dB]  / [2.83V 1m] "	"Frequency [Hz]"	"Sound Pessure Level [dB]  / [2.83V 1m] "	"Frequency [Hz]"	"Sound Pessure Level [dB]  / [2.83V 1m] "	"Frequency [Hz]"	"Sound Pessure Level [dB]  / [2.83V 1m] "	"Frequency [Hz]"	"Sound Pessure Level [dB]  / [2.83V 1m] "	"Frequency [Hz]"	"Sound Pessure Level [dB]  / [2.83V 1m] "	"Frequency [Hz]"	"Sound Pessure Level [dB]  / [2.83V 1m] "	"Frequency [Hz]"	"Sound Pessure Level [dB]  / [2.83V 1m] "	"Frequency [Hz]"	"Sound Pessure Level [dB]  / [2.83V 1m] "	"Frequency [Hz]"	"Sound Pessure Level [dB]  / [2.83V 1m] "	"Frequency [Hz]"	"Sound Pessure Level [dB]  / [2.83V 1m] "	"Frequency [Hz]"	"Sound Pessure Level [dB]  / [2.83V 1m] "	"Frequency [Hz]"	"Sound Pessure Level [dB]  / [2.83V 1m] "	"Frequency [Hz]"	"Sound Pessure Level [dB]  / [2.83V 1m] "	"Frequency [Hz]"	"Sound Pessure Level [dB]  / [2.83V 1m] "	"Frequency [Hz]"	"Sound Pessure Level [dB]  / [2.83V 1m] "	"Frequency [Hz]"	"Sound Pessure Level [dB]  / [2.83V 1m] "	"Frequency [Hz]"	"Sound Pessure Level [dB]  / [2.83V 1m] "	"Frequency [Hz]"	"Sound Pessure Level [dB]  / [2.83V 1m] "	"Frequency [Hz]"	"Sound Pessure Level [dB]  / [2.83V 1m] "	"Frequency [Hz]"	"Sound Pessure Level [dB]  / [2.83V 1m] "	"Frequency [Hz]"	"Sound Pessure Level [dB]  / [2.83V 1m] "	"Frequency [Hz]"	"Sound Pessure Level [dB]  / [2.83V 1m] "	"Frequency [Hz]"	"Sound Pessure Level [dB]  / [2.83V 1m] "	"Frequency [Hz]"	"Sound Pessure Level [dB]  / [2.83V 1m] "	"Frequency [Hz]"	"Sound Pessure Level [dB]  / [2.83V 1m] "	"Frequency [Hz]"	"Sound Pessure Level [dB]  / [2.83V 1m] "	"Frequency [Hz]"	"Sound Pessure Level [dB]  / [2.83V 1m] "	"Frequency [Hz]"	"Sound Pessure Level [dB]  / [2.83V 1m] "	"Frequency [Hz]"	"Sound Pessure Level [dB]  / [2.83V 1m] "	"Frequency [Hz]"	"Sound Pessure Level [dB]  / [2.83V 1m] "	"Frequency [Hz]"	"Sound Pessure Level [dB]  / [2.83V 1m] "	"Frequency [Hz]"	"Sound Pessure Level [dB]  / [2.83V 1m] "	"Frequency [Hz]"	"Sound Pessure Level [dB]  / [2.83V 1m] "
20.5078	61.0261	20.5078	60.9155	20.5078	61.1393	20.5078	60.8115	20.5078	61.2516	20.5078	60.7184	20.5078	61.3603	20.5078	60.6401	20.5078	61.4634	20.5078	60.58	20.5078	61.5592	20.5078	60.5404	20.5078	61.646	20.5078	60.523	20.5078	61.7215	20.5078	60.5283	20.5078	61.7833	20.5078	60.5566	20.5078	61.8289	20.5078	60.6073	20.5078	61.856	20.5078	60.6792	20.5078	61.8635	20.5078	60.7698	20.5078	61.8516	20.5078	60.8757	20.5078	61.8215	20.5078	60.9922	20.5078	61.7751	20.5078	61.1137	20.5078	61.7144	20.5078	61.2348	20.5078	61.6408	20.5078	61.3507	20.5078	61.5552	20.5078	61.4582
21.9727	60.6141	21.9727	60.5931	21.9727	60.6335	21.9727	60.57	21.9727	60.6518	21.9727	60.5447	21.9727	60.6695	21.9727	60.5172	21.9727	60.6867	21.9727	60.488	21.9727	60.7031	21.9727	60.4576	21.9727	60.718	21.9727	60.4273	21.9727	60.73	21.9727	60.3983	21.9727	60.7373	21.9727	60.3721	21.9727	60.7382	21.9727	60.35	21.9727	60.7311	21.9727	60.3337	21.9727	60.715	21.9727	60.3243	21.9727	60.6898	21.9727	60.3229	21.9727	60.6563	21.9727	60.3298	21.9727	60.6162	21.9727	60.3454	21.9727	60.5719	21.9727	60.3692	21.9727	60.5258	21.9727	60.4004	21.9727	60.4804	21.9727	60.438
23.4375	62.2218	23.4375	62.1923	23.4375	62.249	23.4375	62.1608	23.4375	62.2739	23.4375	62.1279	23.4375	62.2963	23.4375	62.0942	23.4375	62.3161	23.4375	62.0607	23.4375	62.3333	23.4375	62.0284	23.4375	62.3474	23.4375	61.9986	23.4375	62.3579	23.4375	61.9727	23.4375	62.3638	23.4375	61.9523	23.4375	62.3642	23.4375	61.9389	23.4375	62.3584	23.4375	61.9338	23.4375	62.3459	23.4375	61.9377	23.4375	62.3265	23.4375	61.9508	23.4375	62.301	23.4375	61.9725	23.4375	62.27	23.4375	62.0014	23.4375	62.2347	23.4375	62.036	23.4375	62.1963	23.4375	62.0744	23.4375	62.156	23.4375	62.1149
24.9023	62.9741	24.9023	62.9471	24.9023	62.9979	24.9023	62.9175	24.9023	63.018	24.9023	62.886	24.9023	63.034	24.9023	62.8533	24.9023	63.0456	24.9023	62.8201	24.9023	63.0524	24.9023	62.7873	24.9023	63.0541	24.9023	62.7556	24.9023	63.0503	24.9023	62.7262	24.9023	63.0406	24.9023	62.7	24.9023	63.0251	24.9023	62.6783	24.9023	63.0038	24.9023	62.6623	24.9023	62.9773	24.9023	62.6531	24.9023	62.9466	24.9023	62.6513	24.9023	62.9129	24.9023	62.6569	24.9023	62.8774	24.9023	62.6696	24.9023	62.8415	24.9023	62.6886	24.9023	62.8062	24.9023	62.7127	24.9023	62.7724	24.9023	62.741
26.3672	63.7376	26.3672	63.7222	26.3672	63.7458	26.3672	63.6996	26.3672	63.7469	26.3672	63.6697	26.3672	63.7407	26.3672	63.6326	26.3672	63.7271	26.3672	63.5886	26.3672	63.7059	26.3672	63.5381	26.3672	63.6768	26.3672	63.4818	26.3672	63.6398	26.3672	63.4209	26.3672	63.5951	26.3672	63.357	26.3672	63.5434	26.3672	63.2921	26.3672	63.4855	26.3672	63.2288	26.3672	63.4231	26.3672	63.1697	26.3672	63.358	26.3672	63.1177	26.3672	63.2922	26.3672	63.0755	26.3672	63.2282	26.3672	63.0456	26.3672	63.1686	26.3672	63.03	26.3672	63.1163	26.3672	63.0296	26.3672	63.0742	26.3672	63.0446
27.832	64.7147	27.832	64.6945	27.832	64.7275	27.832	64.6673	27.832	64.7329	27.832	64.6334	27.832	64.7304	27.832	64.593	27.832	64.7199	27.832	64.5466	27.832	64.7011	27.832	64.4946	27.832	64.6739	27.832	64.4379	27.832	64.6382	27.832	64.3777	27.832	64.5944	27.832	64.3155	27.832	64.543	27.832	64.2535	27.832	64.4851	27.832	64.1938	27.832	64.4222	27.832	64.1389	27.832	64.3562	27.832	64.0914	27.832	64.2892	27.832	64.0535	27.832	64.2238	27.832	64.0274	27.832	64.1628	27.832	64.0149	27.832	64.1091	27.832	64.0171	27.832	64.0654	27.832	64.0342
29.2969	65.4624	29.2969	65.4486	29.2969	65.4678	29.2969	65.4265	29.2969	65.465	29.2969	65.3962	29.2969	65.4539	29.2969	65.3578	29.2969	65.4349	29.2969	65.3118	29.2969	65.408	29.2969	65.2588	29.2969	65.3734	29.2969	65.1999	29.2969	65.3315	29.2969	65.1364	29.2969	65.2827	29.2969	65.0702	29.2969	65.2277	29.2969	65.0037	29.2969	65.1678	29.2969	64.9393	29.2969	65.1044	29.2969	64.8797	29.2969	65.0393	29.2969	64.8275	29.2969	64.9746	29.2969	64.7849	29.2969	64.9128	29.2969	64.754	29.2969	64.8564	29.2969	64.7366	29.2969	64.8081	29.2969	64.7334	29.2969	64.7702	29.2969	64.7448
30.7617	66.2746	30.7617	66.2639	30.7617	66.277	30.7617	66.2452	30.7617	66.2711	30.7617	66.2185	30.7617	66.2567	30.7617	66.1842	30.7617	66.2338	30.7617	66.1425	30.7617	66.2026	30.7617	66.0939	30.7617	66.1633	30.7617	66.0391	30.7617	66.1163	30.7617	65.9793	30.7617	66.0625	30.7617	65.916	30.7617	66.0032	30.7617	65.8514	30.7617	65.9401	30.7617	65.7879	30.7617	65.8752	30.7617	65.728	30.7617	65.8107	30.7617	65.6741	30.7617	65.749	30.7617	65.6285	30.7617	65.6926	30.7617	65.593	30.7617	65.6436	30.7617	65.5693	30.7617	65.6042	30.7617	65.5583	30.7617	65.5762	30.7617	65.5606
32.2266	67.1635	32.2266	67.1489	32.2266	67.1704	32.2266	67.1268	32.2266	67.1699	32.2266	67.0974	32.2266	67.162	32.2266	67.0613	32.2266	67.1469	32.2266	67.0191	32.2266	67.1249	32.2266	66.9718	32.2266	67.0965	32.2266	66.9208	32.2266	67.0623	32.2266	66.8675	32.2266	67.023	32.2266	66.8137	32.2266	66.9795	32.2266	66.7614	32.2266	66.9331	32.2266	66.7125	32.2266	66.8847	32.2266	66.6692	32.2266	66.8356	32.2266	66.6332	32.2266	66.7871	32.2266	66.6063	32.2266	66.7405	32.2266	66.5894	32.2266	66.6972	32.2266	66.5832	32.2266	66.6587	32.2266	66.5878	32.2266	66.6266	32.2266	66.6026
33.6914	67.6364	33.6914	67.6336	33.6914	67.6308	33.6914	67.6225	33.6914	67.6172	33.6914	67.6032	33.6914	67.5961	33.6914	67.576	33.6914	67.5683	33.6914	67.5417	33.6914	67.5346	33.6914	67.5013	33.6914	67.4963	33.6914	67.456	33.6914	67.4547	33.6914	67.4074	33.6914	67.4112	33.6914	67.3575	33.6914	67.3675	33.6914	67.3084	33.6914	67.3248	33.6914	67.2622	33.6914	67.2844	33.6914	67.2208	33.6914	67.2473	33.6914	67.1858	33.6914	67.214	33.6914	67.1579	33.6914	67.1852	33.6914	67.1378	33.6914	67.1612	33.6914	67.1252	33.6914	67.1423	33.6914	67.1199	33.6914	67.1289	33.6914	67.1213
35.1562	68.2965	35.1562	68.2929	35.1562	68.2887	35.1562	68.2775	35.1562	68.2698	35.1562	68.2501	35.1562	68.2406	35.1562	68.2111	35.1562	68.2017	35.1562	68.1608	35.1562	68.1543	35.1562	68.1004	35.1562	68.0993	35.1562	68.0317	35.1562	68.0382	35.1562	67.9567	35.1562	67.9726	35.1562	67.8783	35.1562	67.9042	35.1562	67.7996	35.1562	67.8349	35.1562	67.7234	35.1562	67.7667	35.1562	67.653	35.1562	67.7013	35.1562	67.5908	35.1562	67.6405	35.1562	67.5391	35.1562	67.586	35.1562	67.4995	35.1562	67.5393	35.1562	67.4731	35.1562	67.502	35.1562	67.4604	35.1562	67.4756	35.1562	67.4615
36.6211	69.2065	36.6211	69.2081	36.6211	69.1947	36.6211	69.1995	36.6211	69.1731	36.6211	69.1809	36.6211	69.1421	36.6211	69.1527	36.6211	69.1024	36.6211	69.1155	36.6211	69.0551	36.6211	69.0703	36.6211	69.0014	36.6211	69.0185	36.6211	68.9431	36.6211	68.9616	36.6211	68.882	36.6211	68.9016	36.6211	68.8204	36.6211	68.8405	36.6211	68.7605	36.6211	68.7804	36.6211	68.7043	36.6211	68.7234	36.6211	68.6537	36.6211	68.6713	36.6211	68.6102	36.6211	68.6257	36.6211	68.5749	36.6211	68.5876	36.6211	68.5485	36.6211	68.5579	36.6211	68.5314	36.6211	68.5372	36.6211	68.5238	36.6211	68.5258
38.0859	69.582	38.0859	69.5754	38.0859	69.5798	38.0859	69.5602	38.0859	69.569	38.0859	69.5368	38.0859	69.5495	38.0859	69.5057	38.0859	69.5219	38.0859	69.4676	38.0859	69.4864	38.0859	69.4234	38.0859	69.4439	38.0859	69.3741	38.0859	69.3952	38.0859	69.3212	38.0859	69.3417	38.0859	69.2659	38.0859	69.2851	38.0859	69.2101	38.0859	69.2274	38.0859	69.1554	38.0859	69.1707	38.0859	69.1038	38.0859	69.1171	38.0859	69.0571	38.0859	69.0684	38.0859	69.0169	38.0859	69.0262	38.0859	68.9846	38.0859	68.9919	38.0859	68.9613	38.0859	68.9663	38.0859	68.9476	38.0859	68.9501	38.0859	68.9438
39.5508	70.4558	39.5508	70.4546	39.5508	70.4476	39.5508	70.4441	39.5508	70.4301	39.5508	70.4245	39.5508	70.4035	39.5508	70.3963	39.5508	70.3684	39.5508	70.3601	39.5508	70.3255	39.5508	70.3167	39.5508	70.2757	39.5508	70.2671	39.5508	70.2204	39.5508	70.2126	39.5508	70.1614	39.5508	70.1548	39.5508	70.1007	39.5508	70.0956	39.5508	70.0406	39.5508	70.0369	39.5508	69.9832	39.5508	69.9809	39.5508	69.9308	39.5508	69.9295	39.5508	69.8851	39.5508	69.8844	39.5508	69.8473	39.5508	69.847	39.5508	69.8185	39.5508	69.8183	39.5508	69.799	39.5508	69.7989	39.5508	69.7892	39.5508	69.7891
41.0156	70.9327	41.0156	70.9179	41.0156	70.937	41.0156	70.8929	41.0156	70.9308	41.0156	70.8586	41.0156	70.9141	41.0156	70.8157	41.0156	70.8874	41.0156	70.7653	41.0156	70.8514	41.0156	70.709	41.0156	70.807	41.0156	70.6483	41.0156	70.7555	41.0156	70.585	41.0156	70.6985	41.0156	70.5211	41.0156	70.6376	41.0156	70.4588	41.0156	70.5749	41.0156	70.4004	41.0156	70.5124	41.0156	70.3478	41.0156	70.4522	41.0156	70.3029	41.0156	70.3961	41.0156	70.267	41.0156	70.346	41.0156	70.2411	41.0156	70.303	41.0156	70.2258	41.0156	70.2684	41.0156	70.2211	41.0156	70.2428	41.0156	70.2269
42.4805	71.4355	42.4805	71.4166	42.4805	71.4464	42.4805	71.3902	42.4805	71.449	42.4805	71.3569	42.4805	71.4433	42.4805	71.3175	42.4805	71.4293	42.4805	71.273	42.4805	71.4072	42.4805	71.2249	42.4805	71.3777	42.4805	71.1745	42.4805	71.3416	42.4805	71.1234	42.4805	71.3	42.4805	71.0733	42.4805	71.2544	42.4805	71.0258	42.4805	71.2063	42.4805	70.9827	42.4805	71.1572	42.4805	70.9456	42.4805	71.1088	42.4805	70.9158	42.4805	71.0624	42.4805	70.8943	42.4805	71.0192	42.4805	70.8817	42.4805	70.9802	42.4805	70.8782	42.4805	70.9463	42.4805	70.8835	42.4805	70.9184	42.4805	70.8971
43.9453	71.9435	43.9453	71.9254	43.9453	71.9548	43.9453	71.9011	43.9453	71.9592	43.9453	71.8711	43.9453	71.9567	43.9453	71.8365	43.9453	71.9476	43.9453	71.7984	43.9453	71.9323	43.9453	71.7585	43.9453	71.9114	43.9453	71.7182	43.9453	71.886	43.9453	71.6794	43.9453	71.8572	43.9453	71.6437	43.9453	71.8263	43.9453	71.6126	43.9453	71.7945	43.9453	71.5875	43.9453	71.7632	43.9453	71.5694	43.9453	71.7333	43.9453	71.5588	43.9453	71.7053	43.9453	71.5555	43.9453	71.6797	43.9453	71.5588	43.9453	71.6562	43.9453	71.5677	43.9453	71.6347	43.9453	71.5807	43.9453	71.6148	43.9453	71.5967
45.4102	72.6432	45.4102	72.6326	45.4102	72.6475	45.4102	72.6157	45.4102	72.6455	45.4102	72.5929	45.4102	72.6376	45.4102	72.5648	45.4102	72.6244	45.4102	72.5326	45.4102	72.6066	45.4102	72.4974	45.4102	72.5849	45.4102	72.4607	45.4102	72.5601	45.4102	72.4239	45.4102	72.5332	45.4102	72.3886	45.4102	72.5048	45.4102	72.3561	45.4102	72.4757	45.4102	72.3275	45.4102	72.4467	45.4102	72.3041	45.4102	72.4185	45.4102	72.2866	45.4102	72.3916	45.4102	72.2755	45.4102	72.3666	45.4102	72.2709	45.4102	72.3437	45.4102	72.2723	45.4102	72.3232	45.4102	72.2791	45.4102	72.3053	45.4102	72.2904
46.875	73.405	46.875	73.4152	46.875	73.382	46.875	73.4122	46.875	73.3474	46.875	73.3962	46.875	73.3027	46.875	73.3677	46.875	73.2502	46.875	73.3276	46.875	73.1924	46.875	73.2774	46.875	73.1317	46.875	73.2186	46.875	73.0702	46.875	73.1531	46.875	73.0096	46.875	73.0831	46.875	72.9509	46.875	73.0111	46.875	72.8949	46.875	72.9396	46.875	72.8423	46.875	72.8713	46.875	72.7938	46.875	72.8087	46.875	72.7503	46.875	72.7542	46.875	72.7127	46.875	72.7096	46.875	72.6822	46.875	72.6762	46.875	72.66	46.875	72.6548	46.875	72.6474	46.875	72.6453
48.3398	74.5636	48.3398	74.5991	48.3398	74.5086	48.3398	74.6148	48.3398	74.4346	48.3398	74.6111	48.3398	74.3428	48.3398	74.5882	48.3398	74.2353	48.3398	74.5468	48.3398	74.115	48.3398	74.4877	48.3398	73.9858	48.3398	74.4121	48.3398	73.8521	48.3398	74.3216	48.3398	73.7191	48.3398	74.2183	48.3398	73.5919	48.3398	74.1051	48.3398	73.4755	48.3398	73.9852	48.3398	73.3744	48.3398	73.8625	48.3398	73.2921	48.3398	73.7408	48.3398	73.2313	48.3398	73.624	48.3398	73.1933	48.3398	73.5153	48.3398	73.1787	48.3398	73.4179	48.3398	73.1868	48.3398	73.3341	48.3398	73.2166	48.3398	73.2663
51.2695	74.6265	51.2695	74.5868	51.2695	74.6613	51.2695	74.5437	51.2695	74.6899	51.2695	74.4989	51.2695	74.7113	51.2695	74.4538	51.2695	74.7247	51.2695	74.4102	51.2695	74.7293	51.2695	74.3693	51.2695	74.7249	51.2695	74.3322	51.2695	74.7113	51.2695	74.2995	51.2695	74.6889	51.2695	74.2717	51.2695	74.6586	51.2695	74.249	51.2695	74.6216	51.2695	74.2314	51.2695	74.5792	51.2695	74.2189	51.2695	74.5331	51.2695	74.2118	51.2695	74.4849	51.2695	74.2105	51.2695	74.4364	51.2695	74.2154	51.2695	74.3893	51.2695	74.2271	51.2695	74.3452	51.2695	74.2462	51.2695	74.3059	51.2695	74.2725
52.7344	75.4188	52.7344	75.3938	52.7344	75.439	52.7344	75.3649	52.7344	75.454	52.7344	75.3331	52.7344	75.4638	52.7344	75.3	52.7344	75.4685	52.7344	75.2674	52.7344	75.4685	52.7344	75.237	52.7344	75.4642	52.7344	75.2106	52.7344	75.4561	52.7344	75.1894	52.7344	75.4447	52.7344	75.1742	52.7344	75.4305	52.7344	75.1655	52.7344	75.414	52.7344	75.1629	52.7344	75.3956	52.7344	75.1659	52.7344	75.376	52.7344	75.1736	52.7344	75.3557	52.7344	75.185	52.7344	75.335	52.7344	75.1993	52.7344	75.3142	52.7344	75.2157	52.7344	75.2934	52.7344	75.2338	52.7344	75.2729	52.7344	75.253
54.1992	75.9309	54.1992	75.9204	54.1992	75.9324	54.1992	75.901	54.1992	75.9253	54.1992	75.8733	54.1992	75.9103	54.1992	75.8385	54.1992	75.8886	54.1992	75.798	54.1992	75.8616	54.1992	75.7536	54.1992	75.8307	54.1992	75.7073	54.1992	75.7974	54.1992	75.6615	54.1992	75.763	54.1992	75.6183	54.1992	75.7285	54.1992	75.5798	54.1992	75.6947	54.1992	75.5475	54.1992	75.6623	54.1992	75.5225	54.1992	75.6317	54.1992	75.505	54.1992	75.6035	54.1992	75.4947	54.1992	75.578	54.1992	75.4907	54.1992	75.5555	54.1992	75.492	54.1992	75.5362	54.1992	75.4978	54.1992	75.5201	54.1992	75.5073
55.6641	76.1962	55.6641	76.1921	55.6641	76.1875	55.6641	76.1755	55.6641	76.1662	55.6641	76.1473	55.6641	76.1332	55.6641	76.1086	55.6641	76.0896	55.6641	76.061	55.6641	76.0373	55.6641	76.0067	55.6641	75.9787	55.6641	75.9478	55.6641	75.9163	55.6641	75.8868	55.6641	75.8526	55.6641	75.8262	55.6641	75.7903	55.6641	75.7683	55.6641	75.7314	55.6641	75.715	55.6641	75.6777	55.6641	75.6674	55.6641	75.6306	55.6641	75.6265	55.6641	75.5911	55.6641	75.5923	55.6641	75.5599	55.6641	75.5645	55.6641	75.5372	55.6641	75.543	55.6641	75.5231	55.6641	75.5278	55.6641	75.5172	55.6641	75.519
58.5938	77.5424	58.5938	77.5311	58.5938	77.5407	58.5938	77.5072	58.5938	77.526	58.5938	77.4717	58.5938	77.4988	58.5938	77.4258	58.5938	77.46	58.5938	77.371	58.5938	77.4109	58.5938	77.3093	58.5938	77.3533	58.5938	77.2426	58.5938	77.2894	58.5938	77.1731	58.5938	77.2215	58.5938	77.1033	58.5938	77.1522	58.5938	77.0355	58.5938	77.0839	58.5938	76.9721	58.5938	77.0191	58.5938	76.9153	58.5938	76.9598	58.5938	76.8668	58.5938	76.9074	58.5938	76.8278	58.5938	76.863	58.5938	76.7989	58.5938	76.8271	58.5938	76.7801	58.5938	76.7999	58.5938	76.7713	58.5938	76.7815	58.5938	76.7719
60.0586	77.9163	60.0586	77.9047	60.0586	77.9164	60.0586	77.8821	60.0586	77.9049	60.0586	77.8493	60.0586	77.8822	60.0586	77.8075	60.0586	77.8488	60.0586	77.7581	60.0586	77.8061	60.0586	77.7029	60.0586	77.7555	60.0586	77.6436	60.0586	77.6991	60.0586	77.5823	60.0586	77.6388	60.0586	77.5213	60.0586	77.5772	60.0586	77.4628	60.0586	77.5166	60.0586	77.4088	60.0586	77.4593	60.0586	77.3611	60.0586	77.4071	60.0586	77.3212	60.0586	77.3615	60.0586	77.2898	60.0586	77.3234	60.0586	77.2671	60.0586	77.2931	60.0586	77.2527	60.0586	77.2705	60.0586	77.2462	60.0586	77.2553	60.0586	77.2472
62.9883	78.6489	62.9883	78.6462	62.9883	78.6396	62.9883	78.6319	62.9883	78.6184	62.9883	78.6067	62.9883	78.586	62.9883	78.5718	62.9883	78.5434	62.9883	78.5288	62.9883	78.4923	62.9883	78.4793	62.9883	78.4348	62.9883	78.4254	62.9883	78.3733	62.9883	78.3688	62.9883	78.3105	62.9883	78.3115	62.9883	78.2491	62.9883	78.2553	62.9883	78.1917	62.9883	78.2019	62.9883	78.1404	62.9883	78.1528	62.9883	78.0965	62.9883	78.1092	62.9883	78.0608	62.9883	78.0723	62.9883	78.0334	62.9883	78.0426	62.9883	78.0138	62.9883	78.0203	62.9883	78.0016	62.9883	78.0054	62.9883	77.9962	62.9883	77.9974
64.4531	79.0869	64.4531	79.0797	64.4531	79.0816	64.4531	79.0603	64.4531	79.0637	64.4531	79.0298	64.4531	79.0336	64.4531	78.9897	64.4531	78.9923	64.4531	78.9416	64.4531	78.9414	64.4531	78.8875	64.4531	78.8828	64.4531	78.8297	64.4531	78.8189	64.4531	78.7703	64.4531	78.7524	64.4531	78.7113	64.4531	78.6861	64.4531	78.6545	64.4531	78.6225	64.4531	78.6012	64.4531	78.5641	64.4531	78.5524	64.4531	78.5127	64.4531	78.509	64.4531	78.4697	64.4531	78.4715	64.4531	78.4356	64.4531	78.4404	64.4531	78.4108	64.4531	78.4161	64.4531	78.395	64.4531	78.399	64.4531	78.3881	64.4531	78.3896
67.3828	79.9309	67.3828	79.9155	67.3828	79.9326	67.3828	79.8871	67.3828	79.9206	67.3828	79.8468	67.3828	79.8954	67.3828	79.7963	67.3828	79.8578	67.3828	79.7377	67.3828	79.8096	67.3828	79.6734	67.3828	79.7524	67.3828	79.6062	67.3828	79.6888	67.3828	79.5387	67.3828	79.6212	67.3828	79.4735	67.3828	79.5524	67.3828	79.4128	67.3828	79.4851	67.3828	79.3581	67.3828	79.4215	67.3828	79.3107	67.3828	79.3639	67.3828	79.2711	67.3828	79.3137	67.3828	79.2395	67.3828	79.2719	67.3828	79.2159	67.3828	79.2388	67.3828	79.2001	67.3828	79.2146	67.3828	79.1919	67.3828	79.1989	67.3828	79.1915
68.8477	80.3236	68.8477	80.3076	68.8477	80.3258	68.8477	80.2783	68.8477	80.3142	68.8477	80.2368	68.8477	80.2895	68.8477	80.1848	68.8477	80.2528	68.8477	80.1244	68.8477	80.2057	68.8477	80.0582	68.8477	80.1501	68.8477	79.9889	68.8477	80.0883	68.8477	79.9195	68.8477	80.0228	68.8477	79.8527	68.8477	79.9561	68.8477	79.7908	68.8477	79.8908	68.8477	79.7358	68.8477	79.829	68.8477	79.6889	68.8477	79.7728	68.8477	79.6509	68.8477	79.7233	68.8477	79.6221	68.8477	79.6814	68.8477	79.6021	68.8477	79.6474	68.8477	79.5906	68.8477	79.6211	68.8477	79.587	68.8477	79.6024	68.8477	79.5911
