"SPL Vertical"																																																																							
"On-Axis"		"10°"		"-10°"		"20°"		"-20°"		"30°"		"-30°"		"40°"		"-40°"		"50°"		"-50°"		"60°"		"-60°"		"70°"		"-70°"		"80°"		"-80°"		"90°"		"-90°"		"100°"		"-100°"		"110°"		"-110°"		"120°"		"-120°"		"130°"		"-130°"		"140°"		"-140°"		"150°"		"-150°"		"160°"		"-160°"		"170°"		"-170°"		"180°"	
"Frequency [Hz]"	"Sound Pessure Level [dB]  / [2.83V 1m] "	"Frequency [Hz]"	"Sound Pessure Level [dB]  / [2.83V 1m] "	"Frequency [Hz]"	"Sound Pessure Level [dB]  / [2.83V 1m] "	"Frequency [Hz]"	"Sound Pessure Level [dB]  / [2.83V 1m] "	"Frequency [Hz]"	"Sound Pessure Level [dB]  / [2.83V 1m] "	"Frequency [Hz]"	"Sound Pessure Level [dB]  / [2.83V 1m] "	"Frequency [Hz]"	"Sound Pessure Level [dB]  / [2.83V 1m] "	"Frequency [Hz]"	"Sound Pessure Level [dB]  / [2.83V 1m] "	"Frequency [Hz]"	"Sound Pessure Level [dB]  / [2.83V 1m] "	"Frequency [Hz]"	"Sound Pessure Level [dB]  / [2.83V 1m] "	"Frequency [Hz]"	"Sound Pessure Level [dB]  / [2.83V 1m] "	"Frequency [Hz]"	"Sound Pessure Level [dB]  / [2.83V 1m] "	"Frequency [Hz]"	"Sound Pessure Level [dB]  / [2.83V 1m] "	"Frequency [Hz]"	"Sound Pessure Level [dB]  / [2.83V 1m] "	"Frequency [Hz]"	"Sound Pessure Level [dB]  / [2.83V 1m] "	"Frequency [Hz]"	"Sound Pessure Level [dB]  / [2.83V 1m] "	"Frequency [Hz]"	"Sound Pessure Level [dB]  / [2.83V 1m] "	"Frequency [Hz]"	"Sound Pessure Level [dB]  / [2.83V 1m] "	"Frequency [Hz]"	"Sound Pessure Level [dB]  / [2.83V 1m] "	"Frequency [Hz]"	"Sound Pessure Level [dB]  / [2.83V 1m] "	"Frequency [Hz]"	"Sound Pessure Level [dB]  / [2.83V 1m] "	"Frequency [Hz]"	"Sound Pessure Level [dB]  / [2.83V 1m] "	"Frequency [Hz]"	"Sound Pessure Level [dB]  / [2.83V 1m] "	"Frequency [Hz]"	"Sound Pessure Level [dB]  / [2.83V 1m] "	"Frequency [Hz]"	"Sound Pessure Level [dB]  / [2.83V 1m] "	"Frequency [Hz]"	"Sound Pessure Level [dB]  / [2.83V 1m] "	"Frequency [Hz]"	"Sound Pessure Level [dB]  / [2.83V 1m] "	"Frequency [Hz]"	"Sound Pessure Level [dB]  / [2.83V 1m] "	"Frequency [Hz]"	"Sound Pessure Level [dB]  / [2.83V 1m] "	"Frequency [Hz]"	"Sound Pessure Level [dB]  / [2.83V 1m] "	"Frequency [Hz]"	"Sound Pessure Level [dB]  / [2.83V 1m] "	"Frequency [Hz]"	"Sound Pessure Level [dB]  / [2.83V 1m] "	"Frequency [Hz]"	"Sound Pessure Level [dB]  / [2.83V 1m] "	"Frequency [Hz]"	"Sound Pessure Level [dB]  / [2.83V 1m] "	"Frequency [Hz]"	"Sound Pessure Level [dB]  / [2.83V 1m] "	"Frequency [Hz]"	"Sound Pessure Level [dB]  / [2.83V 1m] "
20.5078	49.3935	20.5078	49.0105	20.5078	49.594	20.5078	48.4947	20.5078	49.5833	20.5078	47.9418	20.5078	49.3433	20.5078	47.5276	20.5078	48.8731	20.5078	47.5016	20.5078	48.2257	20.5078	48.0581	20.5078	47.6012	20.5078	49.163	20.5078	47.4607	20.5078	50.5934	20.5078	48.3014	20.5078	52.1242	20.5078	50.0253	20.5078	53.6165	20.5078	52.0746	20.5078	55.0026	20.5078	54.0427	20.5078	56.2525	20.5078	55.7664	20.5078	57.3513	20.5078	57.2009	20.5078	58.2885	20.5078	58.342	20.5078	59.0529	20.5078	59.1975	20.5078	59.6314	20.5078	59.7788	20.5078	60.0091	20.5078	60.0983	20.5078	60.17
21.9727	51.9884	21.9727	51.6349	21.9727	52.1756	21.9727	51.1537	21.9727	52.1735	21.9727	50.616	21.9727	51.968	21.9727	50.1525	21.9727	51.5602	21.9727	49.9626	21.9727	50.9931	21.9727	50.2478	21.9727	50.4176	21.9727	51.0661	21.9727	50.1771	21.9727	52.2801	21.9727	50.7045	21.9727	53.6801	21.9727	52.069	21.9727	55.1036	21.9727	53.8729	21.9727	56.4575	21.9727	55.7069	21.9727	57.6949	21.9727	57.36	21.9727	58.7915	21.9727	58.755	21.9727	59.7319	21.9727	59.8712	21.9727	60.5023	21.9727	60.7092	21.9727	61.0884	21.9727	61.2764	21.9727	61.4747	21.9727	61.584	21.9727	61.6452
23.4375	53.8459	23.4375	53.4959	23.4375	54.0356	23.4375	53.0201	23.4375	54.0448	23.4375	52.4822	23.4375	53.8616	23.4375	51.9996	23.4375	53.4882	23.4375	51.7574	23.4375	52.9644	23.4375	51.9571	23.4375	52.4232	23.4375	52.6819	23.4375	52.1629	23.4375	53.8237	23.4375	52.5781	23.4375	55.1805	23.4375	53.7864	23.4375	56.5823	23.4375	55.4685	23.4375	57.9268	23.4375	57.2315	23.4375	59.1608	23.4375	58.8478	23.4375	60.2566	23.4375	60.2246	23.4375	61.1966	23.4375	61.3325	23.4375	61.9665	23.4375	62.1672	23.4375	62.5516	23.4375	62.734	23.4375	62.9365	23.4375	63.0426	23.4375	63.1054
24.9023	55.8583	24.9023	55.5906	24.9023	56.0176	24.9023	55.2546	24.9023	56.0465	24.9023	54.9174	24.9023	55.9389	24.9023	54.6811	24.9023	55.7105	24.9023	54.6732	24.9023	55.4171	24.9023	55.0023	24.9023	55.1853	24.9023	55.6946	24.9023	55.2254	24.9023	56.6766	24.9023	55.7496	24.9023	57.8258	24.9023	56.7964	24.9023	59.0294	24.9023	58.1832	24.9023	60.2073	24.9023	59.6657	24.9023	61.3092	24.9023	61.0677	24.9023	62.303	24.9023	62.2939	24.9023	63.1659	24.9023	63.2999	24.9023	63.8788	24.9023	64.0682	24.9023	64.424	24.9023	64.5946	24.9023	64.7839	24.9023	64.8829	24.9023	64.9419
26.3672	58.2105	26.3672	57.9736	26.3672	58.3562	26.3672	57.6773	26.3672	58.3933	26.3672	57.3732	26.3672	58.3174	26.3672	57.1377	26.3672	58.1421	26.3672	57.0685	26.3672	57.9116	26.3672	57.2598	26.3672	57.7205	26.3672	57.7589	26.3672	57.723	26.3672	58.5386	26.3672	58.0884	26.3672	59.5142	26.3672	58.8886	26.3672	60.5864	26.3672	60.0282	26.3672	61.6719	26.3672	61.3186	26.3672	62.7114	26.3672	62.5894	26.3672	63.6639	26.3672	63.7306	26.3672	64.5001	26.3672	64.6824	26.3672	65.1965	26.3672	65.4161	26.3672	65.7323	26.3672	65.9208	26.3672	66.0887	26.3672	66.196	26.3672	66.2482
27.832	60.2081	27.832	60.0114	27.832	60.3336	27.832	59.7721	27.832	60.3719	27.832	59.5348	27.832	60.3197	27.832	59.3618	27.832	60.1904	27.832	59.329	27.832	60.0236	27.832	59.5082	27.832	59.8977	27.832	59.9392	27.832	59.9338	27.832	60.6092	27.832	60.2629	27.832	61.4599	27.832	60.9494	27.832	62.4139	27.832	61.9362	27.832	63.3988	27.832	63.0809	27.832	64.3571	27.832	64.2361	27.832	65.2463	27.832	65.2942	27.832	66.0337	27.832	66.1897	27.832	66.6934	27.832	66.8875	27.832	67.2025	27.832	67.3715	27.832	67.5409	27.832	67.6378	27.832	67.6909
29.2969	62.0766	29.2969	61.8984	29.2969	62.199	29.2969	61.6896	29.2969	62.2517	29.2969	61.4891	29.2969	62.2329	29.2969	61.3494	29.2969	62.1559	29.2969	61.3325	29.2969	62.0562	29.2969	61.4968	29.2969	61.9991	29.2969	61.8768	29.2969	62.0798	29.2969	62.4672	29.2969	62.398	29.2969	63.2256	29.2969	63.0064	29.2969	64.0898	29.2969	63.8699	29.2969	64.9963	29.2969	64.8829	29.2969	65.8911	29.2969	65.9228	29.2969	66.7314	29.2969	66.8901	29.2969	67.4833	29.2969	67.718	29.2969	68.1189	29.2969	68.367	29.2969	68.6141	29.2969	68.8169	29.2969	68.9476	29.2969	69.0609	29.2969	69.1013
30.7617	64.0415	30.7617	63.8911	30.7617	64.15	30.7617	63.7203	30.7617	64.2042	30.7617	63.5607	30.7617	64.2022	30.7617	63.4534	30.7617	64.1547	30.7617	63.4459	30.7617	64.0905	30.7617	63.5833	30.7617	64.0613	30.7617	63.8953	30.7617	64.1414	30.7617	64.385	30.7617	64.4108	30.7617	65.0272	30.7617	64.9187	30.7617	65.7766	30.7617	65.6508	30.7617	66.5812	30.7617	66.531	30.7617	67.3916	30.7617	67.4576	30.7617	68.1652	30.7617	68.3377	30.7617	68.8663	30.7617	69.1028	30.7617	69.4646	30.7617	69.7091	30.7617	69.934	30.7617	70.1323	30.7617	70.2518	30.7617	70.3623	30.7617	70.3993
32.2266	65.8025	32.2266	65.6911	32.2266	65.8884	32.2266	65.5728	32.2266	65.9388	32.2266	65.474	32.2266	65.9527	32.2266	65.4277	32.2266	65.9412	32.2266	65.4705	32.2266	65.9303	32.2266	65.6361	32.2266	65.9639	32.2266	65.9465	32.2266	66.101	32.2266	66.4049	32.2266	66.4014	32.2266	66.9937	32.2266	66.9005	32.2266	67.6796	32.2266	67.5863	32.2266	68.4212	32.2266	68.4003	32.2266	69.1764	32.2266	69.2602	32.2266	69.9058	32.2266	70.0853	32.2266	70.5743	32.2266	70.811	32.2266	71.1503	32.2266	71.3923	32.2266	71.6057	32.2266	71.8013	32.2266	71.9158	32.2266	72.0246	32.2266	72.0603
33.6914	67.5108	33.6914	67.4045	33.6914	67.5993	33.6914	67.2962	33.6914	67.6611	33.6914	67.2084	33.6914	67.6956	33.6914	67.1691	33.6914	67.7118	33.6914	67.209	33.6914	67.7307	33.6914	67.3569	33.6914	67.7871	33.6914	67.6325	33.6914	67.927	33.6914	68.0406	33.6914	68.1981	33.6914	68.5692	33.6914	68.6319	33.6914	69.1913	33.6914	69.2258	33.6914	69.8715	33.6914	69.9389	33.6914	70.5715	33.6914	70.7054	33.6914	71.2537	33.6914	71.4539	33.6914	71.8833	33.6914	72.1224	33.6914	72.4287	33.6914	72.6642	33.6914	72.8613	33.6914	73.0487	33.6914	73.1564	33.6914	73.26	33.6914	73.2939
35.1563	69.2196	35.1563	69.1293	35.1563	69.3011	35.1563	69.0438	35.1563	69.3666	35.1563	68.9818	35.1563	69.4155	35.1563	68.9661	35.1563	69.4559	35.1563	69.0215	35.1563	69.5056	35.1563	69.1706	35.1563	69.5931	35.1563	69.4296	35.1563	69.7553	35.1563	69.8029	35.1563	70.0295	35.1563	70.2822	35.1563	70.4399	35.1563	70.8469	35.1563	70.9848	35.1563	71.4681	35.1563	71.6321	35.1563	72.1126	35.1563	72.3276	35.1563	72.7464	35.1563	73.0096	35.1563	73.3366	35.1563	73.6217	35.1563	73.8522	35.1563	74.1193	35.1563	74.2649	35.1563	74.472	35.1563	74.5498	35.1563	74.6628	35.1563	74.687
36.6211	70.8481	36.6211	70.7664	36.6211	70.9271	36.6211	70.6933	36.6211	70.997	36.6211	70.6448	36.6211	71.0573	36.6211	70.6398	36.6211	71.1148	36.6211	70.6989	36.6211	71.1845	36.6211	70.8408	36.6211	71.2898	36.6211	71.0792	36.6211	71.4605	36.6211	71.4188	36.6211	71.7266	36.6211	71.8541	36.6211	72.1081	36.6211	72.3688	36.6211	72.6046	36.6211	72.939	36.6211	73.1908	36.6211	73.5355	36.6211	73.822	36.6211	74.1272	36.6211	74.4441	36.6211	74.6826	36.6211	75.0056	36.6211	75.1716	36.6211	75.4637	36.6211	75.566	36.6211	75.788	36.6211	75.8412	36.6211	75.9611	36.6211	75.9773
38.0859	72.2449	38.0859	72.1789	38.0859	72.3151	38.0859	72.1266	38.0859	72.3843	38.0859	72.1013	38.0859	72.4527	38.0859	72.1188	38.0859	72.5267	38.0859	72.1954	38.0859	72.6193	38.0859	72.3465	38.0859	72.7507	38.0859	72.5829	38.0859	72.945	38.0859	72.9085	38.0859	73.2255	38.0859	73.3187	38.0859	73.6062	38.0859	73.8006	38.0859	74.0845	38.0859	74.3338	38.0859	74.638	38.0859	74.8931	38.0859	75.2276	38.0859	75.4502	38.0859	75.8066	38.0859	75.9761	38.0859	76.3284	38.0859	76.4417	38.0859	76.7538	38.0859	76.8197	38.0859	77.054	38.0859	77.0859	38.0859	77.2116	38.0859	77.2208
39.5508	73.7273	39.5508	73.6689	39.5508	73.795	39.5508	73.6273	39.5508	73.868	39.5508	73.6127	39.5508	73.9462	39.5508	73.6373	39.5508	74.0342	39.5508	73.7135	39.5508	74.1416	39.5508	73.8532	39.5508	74.2829	39.5508	74.065	39.5508	74.4754	39.5508	74.3525	39.5508	74.7361	39.5508	74.7132	39.5508	75.0758	39.5508	75.1378	39.5508	75.4938	39.5508	75.6103	39.5508	75.9743	39.5508	76.11	39.5508	76.4879	39.5508	76.6124	39.5508	76.9958	39.5508	77.0908	39.5508	77.4573	39.5508	77.5179	39.5508	77.8359	39.5508	77.8677	39.5508	78.1034	39.5508	78.1164	39.5508	78.2421	39.5508	78.2452
41.0156	74.9085	41.0156	74.8487	41.0156	74.978	41.0156	74.8052	41.0156	75.0535	41.0156	74.7866	41.0156	75.1348	41.0156	74.8029	41.0156	75.2251	41.0156	74.865	41.0156	75.3321	41.0156	74.9831	41.0156	75.4672	41.0156	75.1651	41.0156	75.6449	41.0156	75.4154	41.0156	75.8796	41.0156	75.7331	41.0156	76.1816	41.0156	76.1115	41.0156	76.5519	41.0156	76.5379	41.0156	76.9787	41.0156	76.9943	41.0156	77.4377	41.0156	77.4586	41.0156	77.8948	41.0156	77.9056	41.0156	78.3125	41.0156	78.309	41.0156	78.6559	41.0156	78.6429	41.0156	78.8972	41.0156	78.8839	41.0156	79.0187	41.0156	79.0132
42.4805	75.8311	42.4805	75.7751	42.4805	75.9	42.4805	75.7374	42.4805	75.9788	42.4805	75.7251	42.4805	76.0674	42.4805	75.7468	42.4805	76.1685	42.4805	75.8114	42.4805	76.2888	42.4805	75.9276	42.4805	76.4375	42.4805	76.1023	42.4805	76.6264	42.4805	76.3393	42.4805	76.8668	42.4805	76.6384	42.4805	77.1661	42.4805	76.9944	42.4805	77.5239	42.4805	77.3964	42.4805	77.9294	42.4805	77.8287	42.4805	78.3603	42.4805	78.2712	42.4805	78.7862	42.4805	78.7003	42.4805	79.1729	42.4805	79.091	42.4805	79.4883	42.4805	79.4179	42.4805	79.7062	42.4805	79.6581	42.4805	79.8099	42.4805	79.7927
43.9453	76.8076	43.9453	76.7554	43.9453	76.8751	43.9453	76.7228	43.9453	76.9552	43.9453	76.7155	43.9453	77.0478	43.9453	76.7404	43.9453	77.1548	43.9453	76.8048	43.9453	77.281	43.9453	76.9155	43.9453	77.4335	43.9453	77.0785	43.9453	77.6209	43.9453	77.2972	43.9453	77.8517	43.9453	77.5717	43.9453	78.1315	43.9453	77.8981	43.9453	78.4601	43.9453	78.2674	43.9453	78.8284	43.9453	78.6661	43.9453	79.2183	43.9453	79.0762	43.9453	79.6036	43.9453	79.4761	43.9453	79.9541	43.9453	79.8421	43.9453	80.2402	43.9453	80.1502	43.9453	80.4372	43.9453	80.3783	43.9453	80.5288	43.9453	80.5082
45.4102	77.5077	45.4102	77.456	45.4102	77.5763	45.4102	77.4249	45.4102	77.6596	45.4102	77.4191	45.4102	77.757	45.4102	77.4442	45.4102	77.8698	45.4102	77.5061	45.4102	78.0013	45.4102	77.6106	45.4102	78.1567	45.4102	77.7625	45.4102	78.3425	45.4102	77.965	45.4102	78.5651	45.4102	78.2186	45.4102	78.8288	45.4102	78.52	45.4102	79.133	45.4102	78.8619	45.4102	79.4704	45.4102	79.2326	45.4102	79.8255	45.4102	79.6159	45.4102	80.1757	45.4102	79.9919	45.4102	80.4938	45.4102	80.3383	45.4102	80.7527	45.4102	80.6322	45.4102	80.9292	45.4102	80.8522	45.4102	81.0075	45.4102	80.9809
46.875	78.0483	46.875	77.9971	46.875	78.116	46.875	77.9654	46.875	78.1982	46.875	77.9572	46.875	78.2943	46.875	77.9772	46.875	78.4053	46.875	78.0307	46.875	78.5338	46.875	78.1228	46.875	78.6837	46.875	78.2581	46.875	78.8603	46.875	78.4398	46.875	79.0686	46.875	78.6689	46.875	79.3123	46.875	78.9433	46.875	79.5909	46.875	79.257	46.875	79.8984	46.875	79.5996	46.875	80.2214	46.875	79.9567	46.875	80.5398	46.875	80.3096	46.875	80.8292	46.875	80.6373	46.875	81.064	46.875	80.9178	46.875	81.2224	46.875	81.1301	46.875	81.289	46.875	81.2574
48.3398	78.3679	48.3398	78.3203	48.3398	78.4376	48.3398	78.2974	48.3398	78.5277	48.3398	78.3023	48.3398	78.6374	48.3398	78.3386	48.3398	78.7667	48.3398	78.4099	48.3398	78.917	48.3398	78.5197	48.3398	79.0904	48.3398	78.6708	48.3398	79.2899	48.3398	78.865	48.3398	79.518	48.3398	79.1021	48.3398	79.7759	48.3398	79.3793	48.3398	80.0616	48.3398	79.6909	48.3398	80.3684	48.3398	80.0274	48.3398	80.6837	48.3398	80.3755	48.3398	80.9893	48.3398	80.7184	48.3398	81.2631	48.3398	81.0369	48.3398	81.4824	48.3398	81.3103	48.3398	81.6274	48.3398	81.5191	48.3398	81.6843	48.3398	81.6473
51.2695	79.2762	51.2695	79.2282	51.2695	79.3474	51.2695	79.2051	51.2695	79.4403	51.2695	79.2086	51.2695	79.5538	51.2695	79.2405	51.2695	79.6869	51.2695	79.3027	51.2695	79.839	51.2695	79.397	51.2695	80.0099	51.2695	79.5251	51.2695	80.1997	51.2695	79.688	51.2695	80.4083	51.2695	79.8857	51.2695	80.635	51.2695	80.1166	51.2695	80.8776	51.2695	80.3769	51.2695	81.1307	51.2695	80.6602	51.2695	81.3855	51.2695	80.9564	51.2695	81.6284	51.2695	81.2523	51.2695	81.8427	51.2695	81.5317	51.2695	82.0104	51.2695	81.7766	51.2695	82.1151	51.2695	81.9696	51.2695	82.1451	51.2695	82.0956
52.7344	79.5732	52.7344	79.5274	52.7344	79.6431	52.7344	79.507	52.7344	79.7359	52.7344	79.5131	52.7344	79.8503	52.7344	79.5467	52.7344	79.9847	52.7344	79.6091	52.7344	80.1379	52.7344	79.7012	52.7344	80.3086	52.7344	79.8241	52.7344	80.4957	52.7344	79.9782	52.7344	80.698	52.7344	80.1634	52.7344	80.914	52.7344	80.3785	52.7344	81.1411	52.7344	80.6203	52.7344	81.375	52.7344	80.8835	52.7344	81.6079	52.7344	81.1595	52.7344	81.8287	52.7344	81.4364	52.7344	82.0227	52.7344	81.6993	52.7344	82.1737	52.7344	81.9316	52.7344	82.2664	52.7344	82.1162	52.7344	82.2897	52.7344	82.2387
54.1992	79.8777	54.1992	79.8328	54.1992	79.9468	54.1992	79.8131	54.1992	80.039	54.1992	79.8192	54.1992	80.153	54.1992	79.8517	54.1992	80.2869	54.1992	79.9112	54.1992	80.4388	54.1992	79.998	54.1992	80.6069	54.1992	80.1126	54.1992	80.7891	54.1992	80.2555	54.1992	80.9835	54.1992	80.4263	54.1992	81.1879	54.1992	80.624	54.1992	81.3996	54.1992	80.8463	54.1992	81.6143	54.1992	81.0886	54.1992	81.8255	54.1992	81.3436	54.1992	82.0234	54.1992	81.6008	54.1992	82.1953	54.1992	81.8468	54.1992	82.3268	54.1992	82.0661	54.1992	82.4043	54.1992	82.2427	54.1992	82.4178	54.1992	82.363
55.6641	80.1475	55.6641	80.1038	55.6641	80.2165	55.6641	80.086	55.6641	80.3096	55.6641	80.0942	55.6641	80.4255	55.6641	80.1284	55.6641	80.562	55.6641	80.1887	55.6641	80.7167	55.6641	80.2748	55.6641	80.887	55.6641	80.3868	55.6641	81.0699	55.6641	80.5243	55.6641	81.2626	55.6641	80.687	55.6641	81.4622	55.6641	80.8739	55.6641	81.6655	55.6641	81.0829	55.6641	81.8681	55.6641	81.3102	55.6641	82.064	55.6641	81.5495	55.6641	82.2446	55.6641	81.7917	55.6641	82.3988	55.6641	82.0245	55.6641	82.5141	55.6641	82.2337	55.6641	82.5784	55.6641	82.4044	55.6641	82.5827	55.6641	82.5238
58.5938	80.6948	58.5938	80.65	58.5938	80.7649	58.5938	80.6306	58.5938	80.8594	58.5938	80.6363	58.5938	80.9763	58.5938	80.6662	58.5938	81.1133	58.5938	80.7193	58.5938	81.2668	58.5938	80.7946	58.5938	81.433	58.5938	80.8911	58.5938	81.6078	58.5938	81.0081	58.5938	81.7868	58.5938	81.1449	58.5938	81.9662	58.5938	81.3009	58.5938	82.1419	58.5938	81.4748	58.5938	82.31	58.5938	81.6644	58.5938	82.4657	58.5938	81.8655	58.5938	82.603	58.5938	82.0717	58.5938	82.7142	58.5938	82.2737	58.5938	82.7902	58.5938	82.4598	58.5938	82.8225	58.5938	82.6176	58.5938	82.8049	58.5938	82.7354
60.0586	80.9498	60.0586	80.9045	60.0586	81.0197	60.0586	80.8838	60.0586	81.1133	60.0586	80.8871	60.0586	81.2289	60.0586	80.9132	60.0586	81.3637	60.0586	80.9608	60.0586	81.514	60.0586	81.0286	60.0586	81.6758	60.0586	81.1155	60.0586	81.8442	60.0586	81.2206	60.0586	82.0146	60.0586	81.3433	60.0586	82.1826	60.0586	81.483	60.0586	82.3441	60.0586	81.6391	60.0586	82.4951	60.0586	81.81	60.0586	82.6315	60.0586	81.9926	60.0586	82.7483	60.0586	82.1816	60.0586	82.8393	60.0586	82.3688	60.0586	82.897	60.0586	82.544	60.0586	82.9145	60.0586	82.6955	60.0586	82.8867	60.0586	82.8124
62.9883	81.4889	62.9883	81.4423	62.9883	81.5609	62.9883	81.421	62.9883	81.6575	62.9883	81.4237	62.9883	81.7767	62.9883	81.4487	62.9883	81.9154	62.9883	81.4941	62.9883	82.0691	62.9883	81.5579	62.9883	82.2326	62.9883	81.6381	62.9883	82.4003	62.9883	81.7334	62.9883	82.5664	62.9883	81.8427	62.9883	82.7252	62.9883	81.9654	62.9883	82.8721	62.9883	82.1013	62.9883	83.0029	62.9883	82.2494	62.9883	83.1143	62.9883	82.4081	62.9883	83.2026	62.9883	82.5738	62.9883	83.264	62.9883	82.7407	62.9883	83.2938	62.9883	82.9006	62.9883	83.2878	62.9883	83.0437	62.9883	83.2432	62.9883	83.1605
64.4531	81.6744	64.4531	81.6269	64.4531	81.7477	64.4531	81.6049	64.4531	81.8459	64.4531	81.6069	64.4531	81.967	64.4531	81.6312	64.4531	82.1075	64.4531	81.6753	64.4531	82.2627	64.4531	81.7368	64.4531	82.427	64.4531	81.8136	64.4531	82.5942	64.4531	81.9039	64.4531	82.758	64.4531	82.0065	64.4531	82.9124	64.4531	82.1207	64.4531	83.0523	64.4531	82.2463	64.4531	83.1734	64.4531	82.383	64.4531	83.2726	64.4531	82.5296	64.4531	83.3468	64.4531	82.6836	64.4531	83.3933	64.4531	82.8402	64.4531	83.4087	64.4531	82.9925	64.4531	83.3903	64.4531	83.1317	64.4531	83.3366	64.4531	83.2489
67.3828	81.9144	67.3828	81.8624	67.3828	81.9921	67.3828	81.8358	67.3828	82.0947	67.3828	81.8333	67.3828	82.2197	67.3828	81.8523	67.3828	82.3632	67.3828	81.8903	67.3828	82.5199	67.3828	81.9441	67.3828	82.6836	67.3828	82.0112	67.3828	82.8474	67.3828	82.0892	67.3828	83.004	67.3828	82.1766	67.3828	83.1467	67.3828	82.2726	67.3828	83.2699	67.3828	82.3771	67.3828	83.3692	67.3828	82.4905	67.3828	83.4417	67.3828	82.6129	67.3828	83.4857	67.3828	82.7437	67.3828	83.5004	67.3828	82.8802	67.3828	83.4854	67.3828	83.0178	67.3828	83.4407	67.3828	83.1499	67.3828	83.3675	67.3828	83.2688
68.8477	81.9564	68.8477	81.9015	68.8477	82.0363	68.8477	81.8713	68.8477	82.1402	68.8477	81.8643	68.8477	82.2654	68.8477	81.8781	68.8477	82.4082	68.8477	81.91	68.8477	82.563	68.8477	81.9569	68.8477	82.7234	68.8477	82.0159	68.8477	82.8824	68.8477	82.0848	68.8477	83.0324	68.8477	82.1618	68.8477	83.1665	68.8477	82.2462	68.8477	83.2789	68.8477	82.3382	68.8477	83.3651	68.8477	82.4385	68.8477	83.4224	68.8477	82.5478	68.8477	83.4498	68.8477	82.6662	68.8477	83.4475	68.8477	82.7922	68.8477	83.4165	68.8477	82.9222	68.8477	83.358	68.8477	83.0505	68.8477	83.2747	68.8477	83.1703
