"SPL Vertical"																																																																							
"On-Axis"		"10°"		"-10°"		"20°"		"-20°"		"30°"		"-30°"		"40°"		"-40°"		"50°"		"-50°"		"60°"		"-60°"		"70°"		"-70°"		"80°"		"-80°"		"90°"		"-90°"		"100°"		"-100°"		"110°"		"-110°"		"120°"		"-120°"		"130°"		"-130°"		"140°"		"-140°"		"150°"		"-150°"		"160°"		"-160°"		"170°"		"-170°"		"180°"	
"Frequency [Hz]"	"Sound Pessure Level [dB]  / [2.83V 1m] "	"Frequency [Hz]"	"Sound Pessure Level [dB]  / [2.83V 1m] "	"Frequency [Hz]"	"Sound Pessure Level [dB]  / [2.83V 1m] "	"Frequency [Hz]"	"Sound Pessure Level [dB]  / [2.83V 1m] "	"Frequency [Hz]"	"Sound Pessure Level [dB]  / [2.83V 1m] "	"Frequency [Hz]"	"Sound Pessure Level [dB]  / [2.83V 1m] "	"Frequency [Hz]"	"Sound Pessure Level [dB]  / [2.83V 1m] "	"Frequency [Hz]"	"Sound Pessure Level [dB]  / [2.83V 1m] "	"Frequency [Hz]"	"Sound Pessure Level [dB]  / [2.83V 1m] "	"Frequency [Hz]"	"Sound Pessure Level [dB]  / [2.83V 1m] "	"Frequency [Hz]"	"Sound Pessure Level [dB]  / [2.83V 1m] "	"Frequency [Hz]"	"Sound Pessure Level [dB]  / [2.83V 1m] "	"Frequency [Hz]"	"Sound Pessure Level [dB]  / [2.83V 1m] "	"Frequency [Hz]"	"Sound Pessure Level [dB]  / [2.83V 1m] "	"Frequency [Hz]"	"Sound Pessure Level [dB]  / [2.83V 1m] "	"Frequency [Hz]"	"Sound Pessure Level [dB]  / [2.83V 1m] "	"Frequency [Hz]"	"Sound Pessure Level [dB]  / [2.83V 1m] "	"Frequency [Hz]"	"Sound Pessure Level [dB]  / [2.83V 1m] "	"Frequency [Hz]"	"Sound Pessure Level [dB]  / [2.83V 1m] "	"Frequency [Hz]"	"Sound Pessure Level [dB]  / [2.83V 1m] "	"Frequency [Hz]"	"Sound Pessure Level [dB]  / [2.83V 1m] "	"Frequency [Hz]"	"Sound Pessure Level [dB]  / [2.83V 1m] "	"Frequency [Hz]"	"Sound Pessure Level [dB]  / [2.83V 1m] "	"Frequency [Hz]"	"Sound Pessure Level [dB]  / [2.83V 1m] "	"Frequency [Hz]"	"Sound Pessure Level [dB]  / [2.83V 1m] "	"Frequency [Hz]"	"Sound Pessure Level [dB]  / [2.83V 1m] "	"Frequency [Hz]"	"Sound Pessure Level [dB]  / [2.83V 1m] "	"Frequency [Hz]"	"Sound Pessure Level [dB]  / [2.83V 1m] "	"Frequency [Hz]"	"Sound Pessure Level [dB]  / [2.83V 1m] "	"Frequency [Hz]"	"Sound Pessure Level [dB]  / [2.83V 1m] "	"Frequency [Hz]"	"Sound Pessure Level [dB]  / [2.83V 1m] "	"Frequency [Hz]"	"Sound Pessure Level [dB]  / [2.83V 1m] "	"Frequency [Hz]"	"Sound Pessure Level [dB]  / [2.83V 1m] "	"Frequency [Hz]"	"Sound Pessure Level [dB]  / [2.83V 1m] "	"Frequency [Hz]"	"Sound Pessure Level [dB]  / [2.83V 1m] "	"Frequency [Hz]"	"Sound Pessure Level [dB]  / [2.83V 1m] "
20.5078	58.4641	20.5078	58.1538	20.5078	58.7499	20.5078	57.885	20.5078	58.9631	20.5078	57.7394	20.5078	59.0733	20.5078	57.7994	20.5078	59.0689	20.5078	58.1204	20.5078	58.9695	20.5078	58.7056	20.5078	58.8484	20.5078	59.5064	20.5078	58.8597	20.5078	60.4488	20.5078	59.2147	20.5078	61.4601	20.5078	60.0472	20.5078	62.4831	20.5078	61.2768	20.5078	63.4769	20.5078	62.6758	20.5078	64.4123	20.5078	64.0337	20.5078	65.2671	20.5078	65.2241	20.5078	66.0219	20.5078	66.1891	20.5078	66.6583	20.5078	66.9099	20.5078	67.1574	20.5078	67.3879	20.5078	67.4998	20.5078	67.6343	20.5078	67.6654
21.9727	59.6614	21.9727	59.1616	21.9727	60.0763	21.9727	58.642	21.9727	60.363	21.9727	58.2006	21.9727	60.4909	21.9727	57.9676	21.9727	60.4386	21.9727	58.0696	21.9727	60.2007	21.9727	58.5629	21.9727	59.8113	21.9727	59.396	21.9727	59.3977	21.9727	60.4485	21.9727	59.2407	21.9727	61.5984	21.9727	59.6936	21.9727	62.7564	21.9727	60.842	21.9727	63.8666	21.9727	62.383	21.9727	64.8953	21.9727	63.954	21.9727	65.8203	21.9727	65.3447	21.9727	66.6241	21.9727	66.4727	21.9727	67.2899	21.9727	67.3186	21.9727	67.8002	21.9727	67.8895	21.9727	68.1361	21.9727	68.2021	21.9727	68.2771
23.4375	61.4288	23.4375	61.1397	23.4375	61.6971	23.4375	60.8918	23.4375	61.8993	23.4375	60.7609	23.4375	62.0067	23.4375	60.8231	23.4375	62.0094	23.4375	61.1303	23.4375	61.9267	23.4375	61.6872	23.4375	61.8272	23.4375	62.4516	23.4375	61.8508	23.4375	63.3556	23.4375	62.187	23.4375	64.3306	23.4375	62.961	23.4375	65.3209	23.4375	64.1127	23.4375	66.2857	23.4375	65.4414	23.4375	67.1953	23.4375	66.7483	23.4375	68.0268	23.4375	67.9065	23.4375	68.7604	23.4375	68.8537	23.4375	69.3775	23.4375	69.5672	23.4375	69.8591	23.4375	70.0455	23.4375	70.186	23.4375	70.2976	23.4375	70.3386
24.9023	62.9582	24.9023	62.6968	24.9023	63.2026	24.9023	62.4754	24.9023	63.3875	24.9023	62.363	24.9023	63.4858	24.9023	62.4279	24.9023	63.4886	24.9023	62.7174	24.9023	63.4146	24.9023	63.2384	24.9023	63.3289	24.9023	63.9564	24.9023	63.3613	24.9023	64.8118	24.9023	63.6855	24.9023	65.7418	24.9023	64.4188	24.9023	66.6932	24.9023	65.5128	24.9023	67.6254	24.9023	66.7859	24.9023	68.5081	24.9023	68.0494	24.9023	69.3176	24.9023	69.1772	24.9023	70.0333	24.9023	70.1046	24.9023	70.636	24.9023	70.8063	24.9023	71.1064	24.9023	71.2785	24.9023	71.4249	24.9023	71.5291	24.9023	71.5722
26.3672	65.0001	26.3672	64.7059	26.3672	65.2774	26.3672	64.4442	26.3672	65.5002	26.3672	64.2756	26.3672	65.6423	26.3672	64.2639	26.3672	65.6886	26.3672	64.4593	26.3672	65.64	26.3672	64.88	26.3672	65.5255	26.3672	65.5047	26.3672	65.4213	26.3672	66.283	26.3672	65.4646	26.3672	67.1543	26.3672	65.8194	26.3672	68.0631	26.3672	66.5691	26.3672	68.9645	26.3672	67.6337	26.3672	69.8238	26.3672	68.8271	26.3672	70.6134	26.3672	69.9752	26.3672	71.3095	26.3672	70.9667	26.3672	71.8896	26.3672	71.7469	26.3672	72.332	26.3672	72.2963	26.3672	72.6146	26.3672	72.6155	26.3672	72.7159
27.832	66.3389	27.832	66.1107	27.832	66.5683	27.832	65.9295	27.832	66.7634	27.832	65.8476	27.832	66.8991	27.832	65.9157	27.832	66.9631	27.832	66.1687	27.832	66.9604	27.832	66.6146	27.832	66.9243	27.832	67.2315	27.832	66.9294	27.832	67.9769	27.832	67.0941	27.832	68.8013	27.832	67.5416	27.832	69.6586	27.832	68.3173	27.832	70.5102	27.832	69.3421	27.832	71.3247	27.832	70.4627	27.832	72.0762	27.832	71.535	27.832	72.7412	27.832	72.4626	27.832	73.2977	27.832	73.1945	27.832	73.724	27.832	73.7105	27.832	73.9984	27.832	74.0091	27.832	74.0998
29.2969	68.318	29.2969	68.0856	29.2969	68.5462	29.2969	67.8857	29.2969	68.7412	29.2969	67.7613	29.2969	68.8824	29.2969	67.7565	29.2969	68.9591	29.2969	67.9071	29.2969	68.974	29.2969	68.2307	29.2969	68.9516	29.2969	68.7203	29.2969	68.9481	29.2969	69.3475	29.2969	69.0555	29.2969	70.0714	29.2969	69.3787	29.2969	70.8483	29.2969	69.9779	29.2969	71.6385	29.2969	70.8174	29.2969	72.4077	29.2969	71.7814	29.2969	73.1265	29.2969	72.7383	29.2969	73.7689	29.2969	73.5871	29.2969	74.3108	29.2969	74.267	29.2969	74.7291	29.2969	74.7497	29.2969	75.0016	29.2969	75.0279	29.2969	75.1073
30.7617	69.6575	30.7617	69.4785	30.7617	69.8432	30.7617	69.3376	30.7617	70.0103	30.7617	69.27	30.7617	70.1412	30.7617	69.3102	30.7617	70.2278	30.7617	69.4853	30.7617	70.2758	30.7617	69.8076	30.7617	70.3103	30.7617	70.2716	30.7617	70.3831	30.7617	70.855	30.7617	70.5705	30.7617	71.5257	30.7617	70.951	30.7617	72.2478	30.7617	71.5611	30.7617	72.9868	30.7617	72.3633	30.7617	73.7115	30.7617	73.2612	30.7617	74.3938	30.7617	74.1456	30.7617	75.0082	30.7617	74.9293	30.7617	75.5304	30.7617	75.5572	30.7617	75.9372	30.7617	76.0014	30.7617	76.2065	30.7617	76.2535	30.7617	76.3178
32.2266	71.3005	32.2266	71.1341	32.2266	71.4765	32.2266	71.0034	32.2266	71.6405	32.2266	70.9377	32.2266	71.7776	32.2266	70.9659	32.2266	71.8808	32.2266	71.1113	32.2266	71.9544	32.2266	71.3864	32.2266	72.0187	32.2266	71.7895	32.2266	72.1149	32.2266	72.3053	32.2266	72.3029	32.2266	72.9081	32.2266	72.6459	32.2266	73.5672	32.2266	73.1776	32.2266	74.2511	32.2266	73.8759	32.2266	74.9298	32.2266	74.6672	32.2266	75.5753	32.2266	75.459	32.2266	76.1614	32.2266	76.1704	32.2266	76.6634	32.2266	76.7458	32.2266	77.0577	32.2266	77.1541	32.2266	77.3219	32.2266	77.3837	32.2266	77.4361
33.6914	72.7368	33.6914	72.5928	33.6914	72.8941	33.6914	72.4841	33.6914	73.0469	33.6914	72.4349	33.6914	73.1824	33.6914	72.4688	33.6914	73.2952	33.6914	72.6053	33.6914	73.3897	33.6914	72.8554	33.6914	73.4839	33.6914	73.2193	33.6914	73.6122	33.6914	73.686	33.6914	73.8231	33.6914	74.2355	33.6914	74.1656	33.6914	74.8419	33.6914	74.6654	33.6914	75.4775	33.6914	75.3044	33.6914	76.1144	33.6914	76.0228	33.6914	76.7255	33.6914	76.7424	33.6914	77.2851	33.6914	77.3913	33.6914	77.7684	33.6914	77.9172	33.6914	78.1517	33.6914	78.2892	33.6914	78.4129	33.6914	78.4942	33.6914	78.5322
35.1563	74.0842	35.1563	73.9494	35.1563	74.2339	35.1563	73.848	35.1563	74.383	35.1563	73.8005	35.1563	74.5209	35.1563	73.827	35.1563	74.6428	35.1563	73.9444	35.1563	74.7522	35.1563	74.1633	35.1563	74.8642	35.1563	74.4857	35.1563	75.0069	35.1563	74.904	35.1563	75.2197	35.1563	75.4026	35.1563	75.5426	35.1563	75.9597	35.1563	75.9977	35.1563	76.5505	35.1563	76.5723	35.1563	77.1487	35.1563	77.2185	35.1563	77.7283	35.1563	77.8694	35.1563	78.2638	35.1563	78.4599	35.1563	78.7301	35.1563	78.9402	35.1563	79.1035	35.1563	79.2787	35.1563	79.362	35.1563	79.4612	35.1563	79.4862
36.6211	75.3862	36.6211	75.2602	36.6211	75.5295	36.6211	75.1672	36.6211	75.6771	36.6211	75.1244	36.6211	75.8195	36.6211	75.1486	36.6211	75.9527	36.6211	75.2542	36.6211	76.0795	36.6211	75.4505	36.6211	76.2119	36.6211	75.7404	36.6211	76.3724	36.6211	76.1186	36.6211	76.5924	36.6211	76.5728	36.6211	76.9035	36.6211	77.085	36.6211	77.3235	36.6211	77.6333	36.6211	77.8432	36.6211	78.1937	36.6211	78.424	36.6211	78.7416	36.6211	79.0097	36.6211	79.2521	36.6211	79.5426	36.6211	79.7007	36.6211	79.9762	36.6211	80.0638	36.6211	80.2798	36.6211	80.3196	36.6211	80.4383	36.6211	80.4491
38.0859	76.5333	38.0859	76.4147	38.0859	76.6705	38.0859	76.3281	38.0859	76.815	38.0859	76.2879	38.0859	76.9586	38.0859	76.3085	38.0859	77.0975	38.0859	76.4023	38.0859	77.2338	38.0859	76.5779	38.0859	77.3771	38.0859	76.8386	38.0859	77.5457	38.0859	77.181	38.0859	77.7651	38.0859	77.5956	38.0859	78.0611	38.0859	78.0674	38.0859	78.4491	38.0859	78.5771	38.0859	78.9222	38.0859	79.103	38.0859	79.4491	38.0859	79.6215	38.0859	79.9812	38.0859	80.1086	38.0859	80.4669	38.0859	80.5401	38.0859	80.8623	38.0859	80.8926	38.0859	81.1376	38.0859	81.1445	38.0859	81.277	38.0859	81.2771
39.5508	77.5681	39.5508	77.4595	39.5508	77.6974	39.5508	77.3829	39.5508	77.8377	39.5508	77.3506	39.5508	77.982	39.5508	77.3746	39.5508	78.1268	39.5508	77.4654	39.5508	78.2736	39.5508	77.6303	39.5508	78.4302	39.5508	77.8724	39.5508	78.6116	39.5508	78.1896	39.5508	78.8381	39.5508	78.5742	39.5508	79.1306	39.5508	79.0135	39.5508	79.5009	39.5508	79.4909	39.5508	79.9428	39.5508	79.9865	39.5508	80.4295	39.5508	80.4786	39.5508	80.9186	39.5508	80.944	39.5508	81.364	39.5508	81.3594	39.5508	81.7256	39.5508	81.7018	39.5508	81.9747	39.5508	81.9499	39.5508	82.0959	39.5508	82.0857
41.0156	78.5965	41.0156	78.4969	41.0156	78.7184	41.0156	78.4293	41.0156	78.8546	41.0156	78.4033	41.0156	78.999	41.0156	78.4289	41.0156	79.1482	41.0156	78.5144	41.0156	79.3027	41.0156	78.6659	41.0156	79.4684	41.0156	78.8862	41.0156	79.6564	41.0156	79.174	41.0156	79.8825	41.0156	79.5235	41.0156	80.1626	41.0156	79.9244	41.0156	80.506	41.0156	80.3626	41.0156	80.908	41.0156	80.8209	41.0156	81.3465	41.0156	81.2793	41.0156	81.7859	41.0156	81.7163	41.0156	82.1857	41.0156	82.1096	41.0156	82.5095	41.0156	82.4368	41.0156	82.7304	41.0156	82.6773	41.0156	82.8331	41.0156	82.8136
42.4805	79.5385	42.4805	79.4434	42.4805	79.6561	42.4805	79.3786	42.4805	79.7896	42.4805	79.352	42.4805	79.9341	42.4805	79.3717	42.4805	80.0866	42.4805	79.445	42.4805	80.2475	42.4805	79.5772	42.4805	80.421	42.4805	79.7717	42.4805	80.6159	42.4805	80.0283	42.4805	80.8443	42.4805	80.3432	42.4805	81.1183	42.4805	80.7086	42.4805	81.4443	42.4805	81.1128	42.4805	81.8174	42.4805	81.5407	42.4805	82.2181	42.4805	81.9739	42.4805	82.6152	42.4805	82.3922	42.4805	82.9731	42.4805	82.7737	42.4805	83.2586	42.4805	83.0965	42.4805	83.4471	42.4805	83.3401	42.4805	83.5245	42.4805	83.487
43.9453	80.2583	43.9453	80.1612	43.9453	80.3787	43.9453	80.0938	43.9453	80.5164	43.9453	80.0631	43.9453	80.6667	43.9453	80.076	43.9453	80.8267	43.9453	80.1386	43.9453	80.9958	43.9453	80.256	43.9453	81.1765	43.9453	80.4313	43.9453	81.3749	43.9453	80.6649	43.9453	81.6001	43.9453	80.9541	43.9453	81.8612	43.9453	81.2926	43.9453	82.1636	43.9453	81.6702	43.9453	82.5031	43.9453	82.0732	43.9453	82.864	43.9453	82.4848	43.9453	83.2197	43.9453	82.8855	43.9453	83.5388	43.9453	83.2543	43.9453	83.7912	43.9453	83.5698	43.9453	83.9537	43.9453	83.8119	43.9453	84.0123	43.9453	83.9634
45.4102	80.9712	45.4102	80.8749	45.4102	81.0911	45.4102	80.8079	45.4102	81.2297	45.4102	80.7757	45.4102	81.3828	45.4102	80.7842	45.4102	81.5473	45.4102	80.8386	45.4102	81.7221	45.4102	80.9433	45.4102	81.9083	45.4102	81.1014	45.4102	82.1099	45.4102	81.3137	45.4102	82.3331	45.4102	81.5783	45.4102	82.5846	45.4102	81.8903	45.4102	82.8679	45.4102	82.2411	45.4102	83.1794	45.4102	82.6186	45.4102	83.5057	45.4102	83.0074	45.4102	83.8242	45.4102	83.3892	45.4102	84.1074	45.4102	83.7439	45.4102	84.3283	45.4102	84.0508	45.4102	84.4654	45.4102	84.2904	45.4102	84.506	45.4102	84.446
46.875	81.5948	46.875	81.5074	46.875	81.7071	46.875	81.449	46.875	81.8404	46.875	81.424	46.875	81.9909	46.875	81.4366	46.875	82.1557	46.875	81.4911	46.875	82.3322	46.875	81.591	46.875	82.5194	46.875	81.739	46.875	82.7178	46.875	81.9361	46.875	82.9302	46.875	82.1813	46.875	83.1604	46.875	82.4706	46.875	83.4118	46.875	82.7966	46.875	83.6842	46.875	83.1486	46.875	83.9699	46.875	83.5122	46.875	84.2531	46.875	83.8699	46.875	84.5109	46.875	84.2022	46.875	84.718	46.875	84.4887	46.875	84.8523	46.875	84.7099	46.875	84.8984	46.875	84.85
48.3398	82.0699	48.3398	81.9869	48.3398	82.1796	48.3398	81.9338	48.3398	82.3127	48.3398	81.914	48.3398	82.4659	48.3398	81.9307	48.3398	82.6359	48.3398	81.987	48.3398	82.82	48.3398	82.0857	48.3398	83.0161	48.3398	82.2289	48.3398	83.2231	48.3398	82.4174	48.3398	83.4419	48.3398	82.6501	48.3398	83.6742	48.3398	82.9239	48.3398	83.9214	48.3398	83.2325	48.3398	84.1824	48.3398	83.5665	48.3398	84.4503	48.3398	83.9128	48.3398	84.711	48.3398	84.2554	48.3398	84.9446	48.3398	84.5759	48.3398	85.1287	48.3398	84.855	48.3398	85.2434	48.3398	85.0739	48.3398	85.2747	48.3398	85.2173
51.2695	82.9836	51.2695	82.9001	51.2695	83.0937	51.2695	82.8452	51.2695	83.228	51.2695	82.8206	51.2695	83.3839	51.2695	82.8282	51.2695	83.5579	51.2695	82.8698	51.2695	83.7466	51.2695	82.9471	51.2695	83.946	51.2695	83.062	51.2695	84.1529	51.2695	83.2154	51.2695	84.3651	51.2695	83.4076	51.2695	84.5811	51.2695	83.637	51.2695	84.8003	51.2695	83.8998	51.2695	85.0209	51.2695	84.1891	51.2695	85.2377	51.2695	84.4949	51.2695	85.4409	51.2695	84.8036	51.2695	85.616	51.2695	85.099	51.2695	85.7459	51.2695	85.3634	51.2695	85.8149	51.2695	85.5794	51.2695	85.8117	51.2695	85.7321
52.7344	83.3094	52.7344	83.2285	52.7344	83.4185	52.7344	83.1774	52.7344	83.5541	52.7344	83.1571	52.7344	83.7134	52.7344	83.1686	52.7344	83.893	52.7344	83.2128	52.7344	84.0887	52.7344	83.2909	52.7344	84.296	52.7344	83.4038	52.7344	84.5104	52.7344	83.5523	52.7344	84.728	52.7344	83.7362	52.7344	84.9461	52.7344	83.9544	52.7344	85.1624	52.7344	84.2037	52.7344	85.3744	52.7344	84.4781	52.7344	85.5771	52.7344	84.7689	52.7344	85.7619	52.7344	85.0638	52.7344	85.9165	52.7344	85.348	52.7344	86.0263	52.7344	85.6049	52.7344	86.0777	52.7344	85.8182	52.7344	86.0612	52.7344	85.9735
54.1992	83.623	54.1992	83.5453	54.1992	83.7288	54.1992	83.4965	54.1992	83.8615	54.1992	83.477	54.1992	84.0188	54.1992	83.4869	54.1992	84.1973	54.1992	83.5266	54.1992	84.3926	54.1992	83.5966	54.1992	84.5996	54.1992	83.6976	54.1992	84.8129	54.1992	83.8304	54.1992	85.0276	54.1992	83.9954	54.1992	85.2394	54.1992	84.192	54.1992	85.445	54.1992	84.4182	54.1992	85.6412	54.1992	84.6694	54.1992	85.8234	54.1992	84.9384	54.1992	85.9844	54.1992	85.2146	54.1992	86.1138	54.1992	85.4843	54.1992	86.1996	54.1992	85.7321	54.1992	86.2304	54.1992	85.9422	54.1992	86.1983	54.1992	86.1009
55.6641	83.9471	55.6641	83.8688	55.6641	84.0528	55.6641	83.818	55.6641	84.1847	55.6641	83.7945	55.6641	84.3409	55.6641	83.7982	55.6641	84.5179	55.6641	83.8288	55.6641	84.7111	55.6641	83.8867	55.6641	84.9148	55.6641	83.9725	55.6641	85.1229	55.6641	84.087	55.6641	85.3294	55.6641	84.231	55.6641	85.5291	55.6641	84.4047	55.6641	85.718	55.6641	84.6069	55.6641	85.8928	55.6641	84.8345	55.6641	86.0495	55.6641	85.0815	55.6641	86.1826	55.6641	85.3384	55.6641	86.284	55.6641	85.5931	55.6641	86.3441	55.6641	85.8311	55.6641	86.3534	55.6641	86.0375	55.6641	86.3055	55.6641	86.1988
58.5938	84.5332	58.5938	84.4506	58.5938	84.6419	58.5938	84.394	58.5938	84.7759	58.5938	84.3628	58.5938	84.9331	58.5938	84.356	58.5938	85.11	58.5938	84.373	58.5938	85.3012	58.5938	84.4137	58.5938	85.5003	58.5938	84.4784	58.5938	85.7002	58.5938	84.568	58.5938	85.8939	58.5938	84.6835	58.5938	86.0752	58.5938	84.826	58.5938	86.2394	58.5938	84.9954	58.5938	86.3833	58.5938	85.1903	58.5938	86.5039	58.5938	85.4066	58.5938	86.5976	58.5938	85.637	58.5938	86.6591	58.5938	85.8712	58.5938	86.682	58.5938	86.0963	58.5938	86.6595	58.5938	86.2987	58.5938	86.5875	58.5938	86.4656
60.0586	84.7384	60.0586	84.6534	60.0586	84.8496	60.0586	84.5942	60.0586	84.9863	60.0586	84.56	60.0586	85.1465	60.0586	84.5494	60.0586	85.3262	60.0586	84.5616	60.0586	85.52	60.0586	84.5961	60.0586	85.7209	60.0586	84.6529	60.0586	85.9212	60.0586	84.7328	60.0586	86.1133	60.0586	84.837	60.0586	86.2902	60.0586	84.9668	60.0586	86.4469	60.0586	85.1226	60.0586	86.5795	60.0586	85.3038	60.0586	86.6853	60.0586	85.5073	60.0586	86.7615	60.0586	85.7268	60.0586	86.8039	60.0586	85.9531	60.0586	86.8077	60.0586	86.1743	60.0586	86.7679	60.0586	86.3773	60.0586	86.6815	60.0586	86.5495
62.9883	85.0368	62.9883	84.9509	62.9883	85.1498	62.9883	84.8914	62.9883	85.2895	62.9883	84.8566	62.9883	85.4539	62.9883	84.8447	62.9883	85.639	62.9883	84.8539	62.9883	85.8386	62.9883	84.8831	62.9883	86.0453	62.9883	84.9319	62.9883	86.2501	62.9883	85.0005	62.9883	86.4443	62.9883	85.09	62.9883	86.6195	62.9883	85.202	62.9883	86.7693	62.9883	85.3378	62.9883	86.8891	62.9883	85.4977	62.9883	86.9757	62.9883	85.6805	62.9883	87.0271	62.9883	85.8817	62.9883	87.0411	62.9883	86.0943	62.9883	87.0155	62.9883	86.3079	62.9883	86.9483	62.9883	86.5109	62.9883	86.8393	62.9883	86.6913
64.4531	85.1815	64.4531	85.0947	64.4531	85.296	64.4531	85.0346	64.4531	85.4379	64.4531	84.9992	64.4531	85.6051	64.4531	84.9864	64.4531	85.7936	64.4531	84.994	64.4531	85.9969	64.4531	85.0205	64.4531	86.2072	64.4531	85.0652	64.4531	86.415	64.4531	85.1282	64.4531	86.6109	64.4531	85.2105	64.4531	86.7858	64.4531	85.3137	64.4531	86.9325	64.4531	85.4395	64.4531	87.0458	64.4531	85.5889	64.4531	87.1227	64.4531	85.7612	64.4531	87.1612	64.4531	85.9534	64.4531	87.1603	64.4531	86.1592	64.4531	87.119	64.4531	86.3694	64.4531	87.0369	64.4531	86.573	64.4531	86.9154	64.4531	86.7583
67.3828	85.4131	67.3828	85.3244	67.3828	85.5301	67.3828	85.2627	67.3828	85.6753	67.3828	85.2255	67.3828	85.8466	67.3828	85.2101	67.3828	86.0396	67.3828	85.2137	67.3828	86.2474	67.3828	85.2341	67.3828	86.4614	67.3828	85.27	67.3828	86.6714	67.3828	85.3212	67.3828	86.8667	67.3828	85.3885	67.3828	87.0374	67.3828	85.4737	67.3828	87.1752	67.3828	85.579	67.3828	87.2742	67.3828	85.7067	67.3828	87.331	67.3828	85.8577	67.3828	87.3447	67.3828	86.0308	67.3828	87.3156	67.3828	86.2219	67.3828	87.2453	67.3828	86.4238	67.3828	87.1362	67.3828	86.6266	67.3828	86.9922	67.3828	86.8195
68.8477	85.4763	68.8477	85.3856	68.8477	85.5957	68.8477	85.322	68.8477	85.7436	68.8477	85.283	68.8477	85.9176	68.8477	85.2657	68.8477	86.1133	68.8477	85.2669	68.8477	86.3236	68.8477	85.2843	68.8477	86.5395	68.8477	85.3162	68.8477	86.7504	68.8477	85.3623	68.8477	86.9454	68.8477	85.4232	68.8477	87.1141	68.8477	85.5008	68.8477	87.2478	68.8477	85.5976	68.8477	87.3402	68.8477	85.7161	68.8477	87.388	68.8477	85.8581	68.8477	87.3904	68.8477	86.0232	68.8477	87.3483	68.8477	86.2083	68.8477	87.2645	68.8477	86.407	68.8477	87.1426	68.8477	86.6102	68.8477	86.9878	68.8477	86.8073
