"SPL Vertical"																																																																							
"On-Axis"		"10°"		"-10°"		"20°"		"-20°"		"30°"		"-30°"		"40°"		"-40°"		"50°"		"-50°"		"60°"		"-60°"		"70°"		"-70°"		"80°"		"-80°"		"90°"		"-90°"		"100°"		"-100°"		"110°"		"-110°"		"120°"		"-120°"		"130°"		"-130°"		"140°"		"-140°"		"150°"		"-150°"		"160°"		"-160°"		"170°"		"-170°"		"180°"	
"Frequency [Hz]"	"Sound Pessure Level [dB]  / [2.83V 1m] "	"Frequency [Hz]"	"Sound Pessure Level [dB]  / [2.83V 1m] "	"Frequency [Hz]"	"Sound Pessure Level [dB]  / [2.83V 1m] "	"Frequency [Hz]"	"Sound Pessure Level [dB]  / [2.83V 1m] "	"Frequency [Hz]"	"Sound Pessure Level [dB]  / [2.83V 1m] "	"Frequency [Hz]"	"Sound Pessure Level [dB]  / [2.83V 1m] "	"Frequency [Hz]"	"Sound Pessure Level [dB]  / [2.83V 1m] "	"Frequency [Hz]"	"Sound Pessure Level [dB]  / [2.83V 1m] "	"Frequency [Hz]"	"Sound Pessure Level [dB]  / [2.83V 1m] "	"Frequency [Hz]"	"Sound Pessure Level [dB]  / [2.83V 1m] "	"Frequency [Hz]"	"Sound Pessure Level [dB]  / [2.83V 1m] "	"Frequency [Hz]"	"Sound Pessure Level [dB]  / [2.83V 1m] "	"Frequency [Hz]"	"Sound Pessure Level [dB]  / [2.83V 1m] "	"Frequency [Hz]"	"Sound Pessure Level [dB]  / [2.83V 1m] "	"Frequency [Hz]"	"Sound Pessure Level [dB]  / [2.83V 1m] "	"Frequency [Hz]"	"Sound Pessure Level [dB]  / [2.83V 1m] "	"Frequency [Hz]"	"Sound Pessure Level [dB]  / [2.83V 1m] "	"Frequency [Hz]"	"Sound Pessure Level [dB]  / [2.83V 1m] "	"Frequency [Hz]"	"Sound Pessure Level [dB]  / [2.83V 1m] "	"Frequency [Hz]"	"Sound Pessure Level [dB]  / [2.83V 1m] "	"Frequency [Hz]"	"Sound Pessure Level [dB]  / [2.83V 1m] "	"Frequency [Hz]"	"Sound Pessure Level [dB]  / [2.83V 1m] "	"Frequency [Hz]"	"Sound Pessure Level [dB]  / [2.83V 1m] "	"Frequency [Hz]"	"Sound Pessure Level [dB]  / [2.83V 1m] "	"Frequency [Hz]"	"Sound Pessure Level [dB]  / [2.83V 1m] "	"Frequency [Hz]"	"Sound Pessure Level [dB]  / [2.83V 1m] "	"Frequency [Hz]"	"Sound Pessure Level [dB]  / [2.83V 1m] "	"Frequency [Hz]"	"Sound Pessure Level [dB]  / [2.83V 1m] "	"Frequency [Hz]"	"Sound Pessure Level [dB]  / [2.83V 1m] "	"Frequency [Hz]"	"Sound Pessure Level [dB]  / [2.83V 1m] "	"Frequency [Hz]"	"Sound Pessure Level [dB]  / [2.83V 1m] "	"Frequency [Hz]"	"Sound Pessure Level [dB]  / [2.83V 1m] "	"Frequency [Hz]"	"Sound Pessure Level [dB]  / [2.83V 1m] "	"Frequency [Hz]"	"Sound Pessure Level [dB]  / [2.83V 1m] "	"Frequency [Hz]"	"Sound Pessure Level [dB]  / [2.83V 1m] "	"Frequency [Hz]"	"Sound Pessure Level [dB]  / [2.83V 1m] "
20.5078	44.7243	20.5078	44.4686	20.5078	44.8754	20.5078	44.1103	20.5078	44.9376	20.5078	43.6767	20.5078	44.9439	20.5078	43.239	20.5078	44.9481	20.5078	42.9359	20.5078	45.0273	20.5078	42.9679	20.5078	45.2724	20.5078	43.504	20.5078	45.759	20.5078	44.5419	20.5078	46.509	20.5078	45.9063	20.5078	47.4764	20.5078	47.3875	20.5078	48.5713	20.5078	48.8354	20.5078	49.6987	20.5078	50.1646	20.5078	50.7812	20.5078	51.3305	20.5078	51.7629	20.5078	52.3091	20.5078	52.6052	20.5078	53.0863	20.5078	53.2809	20.5078	53.6534	20.5078	53.7707	20.5078	54.0054	20.5078	54.0604	20.5078	54.1405
21.9727	48.3113	21.9727	48.1144	21.9727	48.4564	21.9727	47.8825	21.9727	48.5524	21.9727	47.6572	21.9727	48.619	21.9727	47.5113	21.9727	48.6929	21.9727	47.5444	21.9727	48.8271	21.9727	47.8555	21.9727	49.0835	21.9727	48.4917	21.9727	49.5167	21.9727	49.4159	21.9727	50.151	21.9727	50.5282	21.9727	50.9668	21.9727	51.7164	21.9727	51.908	21.9727	52.8886	21.9727	52.9032	21.9727	53.9806	21.9727	53.8848	21.9727	54.9497	21.9727	54.7977	21.9727	55.7671	21.9727	55.6005	21.9727	56.4126	21.9727	56.2623	21.9727	56.8728	21.9727	56.7607	21.9727	57.1389	21.9727	57.0793	21.9727	57.2074
23.4375	50.3727	23.4375	50.2052	23.4375	50.4624	23.4375	49.9709	23.4375	50.4768	23.4375	49.6995	23.4375	50.432	23.4375	49.4471	23.4375	50.3594	23.4375	49.3026	23.4375	50.3104	23.4375	49.3776	23.4375	50.3564	23.4375	49.7658	23.4375	50.5772	23.4375	50.4866	23.4375	51.0323	23.4375	51.4689	23.4375	51.7297	23.4375	52.5933	23.4375	52.6175	23.4375	53.7458	23.4375	53.6095	23.4375	54.8412	23.4375	54.6171	23.4375	55.8232	23.4375	55.5682	23.4375	56.6551	23.4375	56.4104	23.4375	57.3129	23.4375	57.1072	23.4375	57.7807	23.4375	57.6335	23.4375	58.0487	23.4375	57.9722	23.4375	58.1124
24.9023	51.7728	24.9023	51.64	24.9023	51.8341	24.9023	51.4451	24.9023	51.826	24.9023	51.2124	24.9023	51.7617	24.9023	50.9864	24.9023	51.6684	24.9023	50.837	24.9023	51.5903	24.9023	50.8545	24.9023	51.5904	24.9023	51.1237	24.9023	51.7417	24.9023	51.6823	24.9023	52.1053	24.9023	52.4945	24.9023	52.6999	24.9023	53.4703	24.9023	53.4891	24.9023	54.5071	24.9023	54.3973	24.9023	55.5187	24.9023	55.3391	24.9023	56.443	24.9023	56.2402	24.9023	57.2374	24.9023	57.0446	24.9023	57.8731	24.9023	57.7126	24.9023	58.3307	24.9023	58.2167	24.9023	58.5976	24.9023	58.5386	24.9023	58.6672
26.3672	53.1358	26.3672	53.0487	26.3672	53.1664	26.3672	52.9136	26.3672	53.1418	26.3672	52.7506	26.3672	53.0735	26.3672	52.5944	26.3672	52.9851	26.3672	52.4968	26.3672	52.9148	26.3672	52.5225	26.3672	52.916	26.3672	52.7353	26.3672	53.05	26.3672	53.172	26.3672	53.3688	26.3672	53.8227	26.3672	53.8914	26.3672	54.6326	26.3672	54.592	26.3672	55.5242	26.3672	55.4089	26.3672	56.4213	26.3672	56.2672	26.3672	57.2612	26.3672	57.0979	26.3672	57.9967	26.3672	57.8456	26.3672	58.594	26.3672	58.4697	26.3672	59.0292	26.3672	58.9414	26.3672	59.2867	26.3672	59.2413	26.3672	59.358
27.832	53.9504	27.832	53.8702	27.832	53.9804	27.832	53.7457	27.832	53.9636	27.832	53.5942	27.832	53.9133	27.832	53.4468	27.832	53.8539	27.832	53.3504	27.832	53.8226	27.832	53.366	27.832	53.8679	27.832	53.555	27.832	54.0424	27.832	53.9571	27.832	54.3868	27.832	54.5687	27.832	54.9119	27.832	55.3422	27.832	55.5914	27.832	56.205	27.832	56.37	27.832	57.0826	27.832	57.1816	27.832	57.9118	27.832	57.9642	27.832	58.6446	27.832	58.6671	27.832	59.2455	27.832	59.2513	27.832	59.6901	27.832	59.6887	27.832	59.962	27.832	59.9597	27.832	60.0525
29.2969	55.828	29.2969	55.7457	29.2969	55.8724	29.2969	55.6294	29.2969	55.8816	29.2969	55.4903	29.2969	55.8647	29.2969	55.3479	29.2969	55.8382	29.2969	55.232	29.2969	55.826	29.2969	55.1814	29.2969	55.8597	29.2969	55.2396	29.2969	55.974	29.2969	55.4443	29.2969	56.2001	29.2969	55.8134	29.2969	56.5548	29.2969	56.3364	29.2969	57.0326	29.2969	56.9754	29.2969	57.6046	29.2969	57.6764	29.2969	58.2256	29.2969	58.3819	29.2969	58.8443	29.2969	59.0397	29.2969	59.4117	29.2969	59.6064	29.2969	59.8862	29.2969	60.0483	29.2969	60.2352	29.2969	60.3416	29.2969	60.4351	29.2969	60.4722
30.7617	56.5257	30.7617	56.4623	30.7617	56.5664	30.7617	56.3812	30.7617	56.5863	30.7617	56.2935	30.7617	56.5932	30.7617	56.2177	30.7617	56.6017	30.7617	56.1794	30.7617	56.633	30.7617	56.2094	30.7617	56.7137	30.7617	56.339	30.7617	56.8719	30.7617	56.5926	30.7617	57.1308	30.7617	56.9785	30.7617	57.5009	30.7617	57.485	30.7617	57.9745	30.7617	58.0812	30.7617	58.5258	30.7617	58.7245	30.7617	59.1158	30.7617	59.3681	30.7617	59.7004	30.7617	59.9673	30.7617	60.2365	30.7617	60.4831	30.7617	60.6867	30.7617	60.8842	30.7617	61.0205	30.7617	61.1478	30.7617	61.2161	30.7617	61.26
32.2266	58.0067	32.2266	57.9556	32.2266	58.0385	32.2266	57.887	32.2266	58.0535	32.2266	57.8076	32.2266	58.0584	32.2266	57.7293	32.2266	58.0646	32.2266	57.6693	32.2266	58.0872	32.2266	57.6506	32.2266	58.1452	32.2266	57.6987	32.2266	58.2586	32.2266	57.8386	32.2266	58.4449	32.2266	58.0869	32.2266	58.7148	32.2266	58.4467	32.2266	59.0674	32.2266	58.9028	32.2266	59.4883	32.2266	59.4244	32.2266	59.9508	32.2266	59.9703	32.2266	60.4205	32.2266	60.4964	32.2266	60.8602	32.2266	60.9615	32.2266	61.2344	32.2266	61.3315	32.2266	61.5125	32.2266	61.5813	32.2266	61.6714	32.2266	61.6961
33.6914	59.5237	33.6914	59.4691	33.6914	59.5583	33.6914	59.3959	33.6914	59.5749	33.6914	59.309	33.6914	59.5787	33.6914	59.2174	33.6914	59.5783	33.6914	59.1349	33.6914	59.5855	33.6914	59.0803	33.6914	59.6154	33.6914	59.0761	33.6914	59.6846	33.6914	59.1461	33.6914	59.8096	33.6914	59.3098	33.6914	60.0025	33.6914	59.5761	33.6914	60.2672	33.6914	59.9388	33.6914	60.5963	33.6914	60.3748	33.6914	60.9706	33.6914	60.8486	33.6914	61.3614	33.6914	61.3183	33.6914	61.7348	33.6914	61.7431	33.6914	62.0565	33.6914	62.0875	33.6914	62.296	33.6914	62.3255	33.6914	62.4294	33.6914	62.4411
35.1563	60.4769	35.1563	60.4214	35.1563	60.5148	35.1563	60.3498	35.1563	60.5368	35.1563	60.267	35.1563	60.5473	35.1563	60.1816	35.1563	60.554	35.1563	60.1063	35.1563	60.5677	35.1563	60.0582	35.1563	60.6018	35.1563	60.0578	35.1563	60.6717	35.1563	60.1262	35.1563	60.7922	35.1563	60.281	35.1563	60.9743	35.1563	60.5306	35.1563	61.2218	35.1563	60.8697	35.1563	61.5284	35.1563	61.2781	35.1563	61.8769	35.1563	61.7236	35.1563	62.2409	35.1563	62.1674	35.1563	62.5892	35.1563	62.5708	35.1563	62.8894	35.1563	62.8999	35.1563	63.1124	35.1563	63.1289	35.1563	63.2349	35.1563	63.2422
36.6211	61.6463	36.6211	61.5903	36.6211	61.6886	36.6211	61.5214	36.6211	61.7188	36.6211	61.4434	36.6211	61.7411	36.6211	61.3633	36.6211	61.7622	36.6211	61.2916	36.6211	61.7914	36.6211	61.2425	36.6211	61.84	36.6211	61.2335	36.6211	61.9204	36.6211	61.2832	36.6211	62.0443	36.6211	61.4079	36.6211	62.2201	36.6211	61.6173	36.6211	62.4501	36.6211	61.9101	36.6211	62.7282	36.6211	62.2719	36.6211	63.0391	36.6211	62.6763	36.6211	63.3597	36.6211	63.0891	36.6211	63.6622	36.6211	63.4741	36.6211	63.9175	36.6211	63.7978	36.6211	64.0992	36.6211	64.0341	36.6211	64.1863	36.6211	64.1658
38.0859	62.7509	38.0859	62.7148	38.0859	62.7812	38.0859	62.6727	38.0859	62.8079	38.0859	62.6267	38.0859	62.8352	38.0859	62.5816	38.0859	62.869	38.0859	62.5444	38.0859	62.9165	38.0859	62.5252	38.0859	62.986	38.0859	62.5357	38.0859	63.0851	38.0859	62.589	38.0859	63.2203	38.0859	62.697	38.0859	63.3953	38.0859	62.868	38.0859	63.6091	38.0859	63.1033	38.0859	63.855	38.0859	63.3951	38.0859	64.1206	38.0859	63.7257	38.0859	64.3881	38.0859	64.0695	38.0859	64.636	38.0859	64.3967	38.0859	64.8415	38.0859	64.6781	38.0859	64.9834	38.0859	64.8893	38.0859	65.0444	38.0859	65.0138
39.5508	63.3375	39.5508	63.2477	39.5508	63.4124	39.5508	63.1428	39.5508	63.4739	39.5508	63.0245	39.5508	63.525	39.5508	62.8966	39.5508	63.5696	39.5508	62.7656	39.5508	63.6129	39.5508	62.6414	39.5508	63.6609	39.5508	62.5372	39.5508	63.7203	39.5508	62.4697	39.5508	63.7973	39.5508	62.4572	39.5508	63.8969	39.5508	62.5171	39.5508	64.0214	39.5508	62.6604	39.5508	64.1685	39.5508	62.8876	39.5508	64.3303	39.5508	63.185	39.5508	64.4933	39.5508	63.5261	39.5508	64.6394	39.5508	63.8768	39.5508	64.7477	39.5508	64.2018	39.5508	64.7981	39.5508	64.4715	39.5508	64.774	39.5508	64.6655
41.0156	64.701	41.0156	64.6271	41.0156	64.7653	41.0156	64.5439	41.0156	64.821	41.0156	64.454	41.0156	64.8705	41.0156	64.3621	41.0156	64.9174	41.0156	64.2758	41.0156	64.966	41.0156	64.2055	41.0156	65.0216	41.0156	64.1642	41.0156	65.0896	41.0156	64.1666	41.0156	65.1754	41.0156	64.2268	41.0156	65.2832	41.0156	64.3548	41.0156	65.4149	41.0156	64.5529	41.0156	65.5691	41.0156	64.813	41.0156	65.7401	41.0156	65.1157	41.0156	65.9171	41.0156	65.4337	41.0156	66.085	41.0156	65.7369	41.0156	66.226	41.0156	65.9973	41.0156	66.3216	41.0156	66.1939	41.0156	66.355	41.0156	66.3142
42.4805	66.7338	42.4805	66.715	42.4805	66.7458	42.4805	66.6893	42.4805	66.7519	42.4805	66.6576	42.4805	66.7537	42.4805	66.6218	42.4805	66.7538	42.4805	66.5853	42.4805	66.7555	42.4805	66.5532	42.4805	66.7632	42.4805	66.5327	42.4805	66.782	42.4805	66.533	42.4805	66.8176	42.4805	66.5647	42.4805	66.8754	42.4805	66.6374	42.4805	66.9594	42.4805	66.7569	42.4805	67.0711	42.4805	66.9212	42.4805	67.2078	42.4805	67.1193	42.4805	67.3619	42.4805	67.3314	42.4805	67.5209	42.4805	67.5335	42.4805	67.6683	42.4805	67.7019	42.4805	67.7863	42.4805	67.8178	42.4805	67.8579	42.4805	67.8705
43.9453	66.6462	43.9453	66.5896	43.9453	66.6868	43.9453	66.5161	43.9453	66.7132	43.9453	66.4261	43.9453	66.7282	43.9453	66.3224	43.9453	66.7352	43.9453	66.2102	43.9453	66.7389	43.9453	66.0989	43.9453	66.7447	43.9453	66.0026	43.9453	66.7589	43.9453	65.9394	43.9453	66.7882	43.9453	65.9291	43.9453	66.8392	43.9453	65.9889	43.9453	66.9166	43.9453	66.127	43.9453	67.022	43.9453	66.3378	43.9453	67.1523	43.9453	66.6018	43.9453	67.2987	43.9453	66.8892	43.9453	67.4471	43.9453	67.1671	43.9453	67.579	43.9453	67.4057	43.9453	67.6745	43.9453	67.5831	43.9453	67.7152	43.9453	67.687
45.4102	66.152	45.4102	66.047	45.4102	66.2525	45.4102	65.9393	45.4102	66.3483	45.4102	65.8322	45.4102	66.4403	45.4102	65.7313	45.4102	66.5304	45.4102	65.6441	45.4102	66.6217	45.4102	65.5807	45.4102	66.7179	45.4102	65.5534	45.4102	66.8232	45.4102	65.575	45.4102	66.9415	45.4102	65.6568	45.4102	67.0755	45.4102	65.8057	45.4102	67.2256	45.4102	66.0214	45.4102	67.3891	45.4102	66.2948	45.4102	67.5589	45.4102	66.6086	45.4102	67.7238	45.4102	66.9393	45.4102	67.8692	45.4102	67.2608	45.4102	67.9783	45.4102	67.5477	45.4102	68.0348	45.4102	67.779	45.4102	68.025	45.4102	67.9402
46.875	67.0547	46.875	66.9354	46.875	67.1807	46.875	66.8278	46.875	67.3101	46.875	66.7384	46.875	67.4411	46.875	66.6754	46.875	67.5735	46.875	66.6475	46.875	67.7083	46.875	66.6634	46.875	67.8474	46.875	66.7303	46.875	67.9933	46.875	66.8526	46.875	68.1483	46.875	67.0311	46.875	68.314	46.875	67.262	46.875	68.4904	46.875	67.5372	46.875	68.6748	46.875	67.8445	46.875	68.8614	46.875	68.1677	46.875	69.0408	46.875	68.488	46.875	69.2007	46.875	68.7853	46.875	69.3265	46.875	69.0403	46.875	69.4037	46.875	69.237	46.875	69.4193	46.875	69.3646
48.3398	69.218	48.3398	69.182	48.3398	69.251	48.3398	69.1434	48.3398	69.2812	48.3398	69.1031	48.3398	69.3095	48.3398	69.0625	48.3398	69.3371	48.3398	69.0241	48.3398	69.3657	48.3398	68.9911	48.3398	69.3977	48.3398	68.9676	48.3398	69.4356	48.3398	68.959	48.3398	69.4823	48.3398	68.971	48.3398	69.54	48.3398	69.0098	48.3398	69.6102	48.3398	69.0801	48.3398	69.6924	48.3398	69.1838	48.3398	69.7834	48.3398	69.3183	48.3398	69.8771	48.3398	69.475	48.3398	69.9641	48.3398	69.6402	48.3398	70.0329	48.3398	69.797	48.3398	70.0715	48.3398	69.9287	48.3398	70.0698	48.3398	70.022
51.2695	70.1623	51.2695	70.1126	51.2695	70.205	51.2695	70.0553	51.2695	70.2421	51.2695	69.9904	51.2695	70.2754	51.2695	69.9191	51.2695	70.3071	51.2695	69.8442	51.2695	70.3398	51.2695	69.7703	51.2695	70.3762	51.2695	69.7047	51.2695	70.4195	51.2695	69.6567	51.2695	70.4724	51.2695	69.6373	51.2695	70.5371	51.2695	69.6578	51.2695	70.6144	51.2695	69.7268	51.2695	70.703	51.2695	69.8472	51.2695	70.7983	51.2695	70.0143	51.2695	70.8928	51.2695	70.215	51.2695	70.9755	51.2695	70.4296	51.2695	71.0338	51.2695	70.6361	51.2695	71.0547	51.2695	70.8138	51.2695	71.0278	51.2695	70.9472
52.7344	70.7526	52.7344	70.6858	52.7344	70.822	52.7344	70.6223	52.7344	70.8939	52.7344	70.5637	52.7344	70.9684	52.7344	70.512	52.7344	71.0461	52.7344	70.4706	52.7344	71.1282	52.7344	70.444	52.7344	71.216	52.7344	70.438	52.7344	71.3108	52.7344	70.4595	52.7344	71.4141	52.7344	70.5158	52.7344	71.5265	52.7344	70.6128	52.7344	71.6474	52.7344	70.7533	52.7344	71.7742	52.7344	70.9353	52.7344	71.9021	52.7344	71.1505	52.7344	72.0232	52.7344	71.3848	52.7344	72.1271	52.7344	71.6199	52.7344	72.202	52.7344	71.8362	52.7344	72.236	52.7344	72.0158	52.7344	72.2192	52.7344	72.1457
54.1992	71.6348	54.1992	71.5675	54.1992	71.7056	54.1992	71.5038	54.1992	71.7801	54.1992	71.4446	54.1992	71.8588	54.1992	71.3917	54.1992	71.9425	54.1992	71.348	54.1992	72.0321	54.1992	71.3182	54.1992	72.1285	54.1992	71.3085	54.1992	72.2328	54.1992	71.3266	54.1992	72.3456	54.1992	71.3806	54.1992	72.4667	54.1992	71.4771	54.1992	72.5947	54.1992	71.6196	54.1992	72.7264	54.1992	71.8062	54.1992	72.8564	54.1992	72.0283	54.1992	72.9769	54.1992	72.2712	54.1992	73.0778	54.1992	72.5157	54.1992	73.1476	54.1992	72.7416	54.1992	73.1751	54.1992	72.9305	54.1992	73.1508	54.1992	73.0692
55.6641	72.5447	55.6641	72.4765	55.6641	72.6215	55.6641	72.4181	55.6641	72.7061	55.6641	72.3712	55.6641	72.798	55.6641	72.3382	55.6641	72.897	55.6641	72.3223	55.6641	73.0031	55.6641	72.3277	55.6641	73.1164	55.6641	72.3591	55.6641	73.237	55.6641	72.4216	55.6641	73.3648	55.6641	72.5196	55.6641	73.4991	55.6641	72.6558	55.6641	73.6383	55.6641	72.8294	55.6641	73.7793	55.6641	73.0355	55.6641	73.9173	55.6641	73.264	55.6641	74.0454	55.6641	73.5011	55.6641	74.1548	55.6641	73.7298	55.6641	74.2355	55.6641	73.9335	55.6641	74.2772	55.6641	74.0974	55.6641	74.2711	55.6641	74.2115
58.5938	74.1255	58.5938	74.0563	58.5938	74.2038	58.5938	73.9974	58.5938	74.2901	58.5938	73.9503	58.5938	74.3837	58.5938	73.917	58.5938	74.4838	58.5938	73.9	58.5938	74.5895	58.5938	73.9023	58.5938	74.7001	58.5938	73.9273	58.5938	74.8148	58.5938	73.9783	58.5938	74.9325	58.5938	74.0584	58.5938	75.052	58.5938	74.1693	58.5938	75.1713	58.5938	74.3109	58.5938	75.2876	58.5938	74.48	58.5938	75.3968	58.5938	74.6702	58.5938	75.4932	58.5938	74.8714	58.5938	75.5699	58.5938	75.0712	58.5938	75.6189	58.5938	75.2558	58.5938	75.6323	58.5938	75.412	58.5938	75.6038	58.5938	75.53
60.0586	74.8994	60.0586	74.8307	60.0586	74.9777	60.0586	74.7729	60.0586	75.0644	60.0586	74.7276	60.0586	75.1584	60.0586	74.6966	60.0586	75.2586	60.0586	74.6821	60.0586	75.3639	60.0586	74.6864	60.0586	75.4734	60.0586	74.7123	60.0586	75.5859	60.0586	74.7624	60.0586	75.7004	60.0586	74.8389	60.0586	75.8155	60.0586	74.9434	60.0586	75.9292	60.0586	75.0757	60.0586	76.0388	60.0586	75.2335	60.0586	76.1406	60.0586	75.4116	60.0586	76.229	60.0586	75.6012	60.0586	76.2977	60.0586	75.791	60.0586	76.3392	60.0586	75.9682	60.0586	76.3463	60.0586	76.1204	60.0586	76.3133	60.0586	76.2374
62.9883	76.4614	62.9883	76.4002	62.9883	76.533	62.9883	76.3502	62.9883	76.6139	62.9883	76.3121	62.9883	76.7032	62.9883	76.2871	62.9883	76.7998	62.9883	76.2761	62.9883	76.9024	62.9883	76.2807	62.9883	77.0097	62.9883	76.3027	62.9883	77.1202	62.9883	76.3444	62.9883	77.2322	62.9883	76.4079	62.9883	77.3436	62.9883	76.4955	62.9883	77.452	62.9883	76.6082	62.9883	77.5542	62.9883	76.7453	62.9883	77.6464	62.9883	76.9032	62.9883	77.7237	62.9883	77.0751	62.9883	77.7801	62.9883	77.2509	62.9883	77.8094	62.9883	77.4187	62.9883	77.8056	62.9883	77.5663	62.9883	77.7642	62.9883	77.6837
64.4531	77.1132	64.4531	77.0504	64.4531	77.1872	64.4531	76.9997	64.4531	77.2714	64.4531	76.9619	64.4531	77.3646	64.4531	76.9378	64.4531	77.4654	64.4531	76.9284	64.4531	77.5723	64.4531	76.9348	64.4531	77.6836	64.4531	76.9586	64.4531	77.7973	64.4531	77.0017	64.4531	77.9114	64.4531	77.066	64.4531	78.0235	64.4531	77.1534	64.4531	78.131	64.4531	77.265	64.4531	78.2307	64.4531	77.4	64.4531	78.3188	64.4531	77.5551	64.4531	78.3907	64.4531	77.724	64.4531	78.4413	64.4531	77.8969	64.4531	78.4647	64.4531	78.0626	64.4531	78.4557	64.4531	78.2094	64.4531	78.4103	64.4531	78.3274
67.3828	78.2022	67.3828	78.1396	67.3828	78.2772	67.3828	78.0904	67.3828	78.3636	67.3828	78.0547	67.3828	78.4599	67.3828	78.0329	67.3828	78.564	67.3828	78.0249	67.3828	78.6736	67.3828	78.0309	67.3828	78.7861	67.3828	78.0516	67.3828	78.8989	67.3828	78.0879	67.3828	79.009	67.3828	78.1414	67.3828	79.1135	67.3828	78.2139	67.3828	79.2095	67.3828	78.307	67.3828	79.2938	67.3828	78.4213	67.3828	79.3633	67.3828	78.555	67.3828	79.4146	67.3828	78.7037	67.3828	79.4437	67.3828	78.8597	67.3828	79.4469	67.3828	79.0133	67.3828	79.4205	67.3828	79.1539	67.3828	79.3624	67.3828	79.2725
68.8477	78.8405	68.8477	78.7793	68.8477	78.9127	68.8477	78.7296	68.8477	78.9946	68.8477	78.6917	68.8477	79.0849	68.8477	78.6655	68.8477	79.1815	68.8477	78.651	68.8477	79.282	68.8477	78.6481	68.8477	79.3838	68.8477	78.6574	68.8477	79.484	68.8477	78.6799	68.8477	79.5798	68.8477	78.7174	68.8477	79.6684	68.8477	78.7719	68.8477	79.7472	68.8477	78.8457	68.8477	79.8135	68.8477	78.9399	68.8477	79.8649	68.8477	79.0538	68.8477	79.8986	68.8477	79.1838	68.8477	79.9119	68.8477	79.3235	68.8477	79.9018	68.8477	79.4642	68.8477	79.8656	68.8477	79.5962	68.8477	79.8018	68.8477	79.7109
