"SPL Horizontal"																																																																							
"On-Axis"		"10°"		"-10°"		"20°"		"-20°"		"30°"		"-30°"		"40°"		"-40°"		"50°"		"-50°"		"60°"		"-60°"		"70°"		"-70°"		"80°"		"-80°"		"90°"		"-90°"		"100°"		"-100°"		"110°"		"-110°"		"120°"		"-120°"		"130°"		"-130°"		"140°"		"-140°"		"150°"		"-150°"		"160°"		"-160°"		"170°"		"-170°"		"180°"	
"Frequency [Hz]"	"Sound Pessure Level [dB]  / [2.83V 1m] "	"Frequency [Hz]"	"Sound Pessure Level [dB]  / [2.83V 1m] "	"Frequency [Hz]"	"Sound Pessure Level [dB]  / [2.83V 1m] "	"Frequency [Hz]"	"Sound Pessure Level [dB]  / [2.83V 1m] "	"Frequency [Hz]"	"Sound Pessure Level [dB]  / [2.83V 1m] "	"Frequency [Hz]"	"Sound Pessure Level [dB]  / [2.83V 1m] "	"Frequency [Hz]"	"Sound Pessure Level [dB]  / [2.83V 1m] "	"Frequency [Hz]"	"Sound Pessure Level [dB]  / [2.83V 1m] "	"Frequency [Hz]"	"Sound Pessure Level [dB]  / [2.83V 1m] "	"Frequency [Hz]"	"Sound Pessure Level [dB]  / [2.83V 1m] "	"Frequency [Hz]"	"Sound Pessure Level [dB]  / [2.83V 1m] "	"Frequency [Hz]"	"Sound Pessure Level [dB]  / [2.83V 1m] "	"Frequency [Hz]"	"Sound Pessure Level [dB]  / [2.83V 1m] "	"Frequency [Hz]"	"Sound Pessure Level [dB]  / [2.83V 1m] "	"Frequency [Hz]"	"Sound Pessure Level [dB]  / [2.83V 1m] "	"Frequency [Hz]"	"Sound Pessure Level [dB]  / [2.83V 1m] "	"Frequency [Hz]"	"Sound Pessure Level [dB]  / [2.83V 1m] "	"Frequency [Hz]"	"Sound Pessure Level [dB]  / [2.83V 1m] "	"Frequency [Hz]"	"Sound Pessure Level [dB]  / [2.83V 1m] "	"Frequency [Hz]"	"Sound Pessure Level [dB]  / [2.83V 1m] "	"Frequency [Hz]"	"Sound Pessure Level [dB]  / [2.83V 1m] "	"Frequency [Hz]"	"Sound Pessure Level [dB]  / [2.83V 1m] "	"Frequency [Hz]"	"Sound Pessure Level [dB]  / [2.83V 1m] "	"Frequency [Hz]"	"Sound Pessure Level [dB]  / [2.83V 1m] "	"Frequency [Hz]"	"Sound Pessure Level [dB]  / [2.83V 1m] "	"Frequency [Hz]"	"Sound Pessure Level [dB]  / [2.83V 1m] "	"Frequency [Hz]"	"Sound Pessure Level [dB]  / [2.83V 1m] "	"Frequency [Hz]"	"Sound Pessure Level [dB]  / [2.83V 1m] "	"Frequency [Hz]"	"Sound Pessure Level [dB]  / [2.83V 1m] "	"Frequency [Hz]"	"Sound Pessure Level [dB]  / [2.83V 1m] "	"Frequency [Hz]"	"Sound Pessure Level [dB]  / [2.83V 1m] "	"Frequency [Hz]"	"Sound Pessure Level [dB]  / [2.83V 1m] "	"Frequency [Hz]"	"Sound Pessure Level [dB]  / [2.83V 1m] "	"Frequency [Hz]"	"Sound Pessure Level [dB]  / [2.83V 1m] "	"Frequency [Hz]"	"Sound Pessure Level [dB]  / [2.83V 1m] "	"Frequency [Hz]"	"Sound Pessure Level [dB]  / [2.83V 1m] "
20.5078	71.5714	20.5078	71.5494	20.5078	71.5883	20.5078	71.5222	20.5078	71.6003	20.5078	71.4897	20.5078	71.6077	20.5078	71.452	20.5078	71.6104	20.5078	71.4093	20.5078	71.6087	20.5078	71.3624	20.5078	71.6025	20.5078	71.3121	20.5078	71.5916	20.5078	71.2598	20.5078	71.5757	20.5078	71.2075	20.5078	71.5542	20.5078	71.1573	20.5078	71.5263	20.5078	71.1117	20.5078	71.4912	20.5078	71.0733	20.5078	71.4485	20.5078	71.0449	20.5078	71.3982	20.5078	71.0287	20.5078	71.3416	20.5078	71.0267	20.5078	71.2808	20.5078	71.0397	20.5078	71.2191	20.5078	71.0675	20.5078	71.1603	20.5078	71.1086
21.2402	70.6892	21.2402	70.6815	21.2402	70.6896	21.2402	70.666	21.2402	70.6829	21.2402	70.6423	21.2402	70.6696	21.2402	70.6103	21.2402	70.6498	21.2402	70.5697	21.2402	70.6242	21.2402	70.5206	21.2402	70.593	21.2402	70.4635	21.2402	70.5567	21.2402	70.3996	21.2402	70.5158	21.2402	70.3304	21.2402	70.4704	21.2402	70.2583	21.2402	70.4206	21.2402	70.1862	21.2402	70.3663	21.2402	70.1178	21.2402	70.3077	21.2402	70.0567	21.2402	70.2455	21.2402	70.007	21.2402	70.1816	21.2402	69.9719	21.2402	70.1185	21.2402	69.9543	21.2402	70.0602	21.2402	69.9554	21.2402	70.011	21.2402	69.9749
21.9727	71.4352	21.9727	71.4237	21.9727	71.4375	21.9727	71.4032	21.9727	71.4302	21.9727	71.3744	21.9727	71.4132	21.9727	71.3376	21.9727	71.3864	21.9727	71.2937	21.9727	71.3502	21.9727	71.2436	21.9727	71.305	21.9727	71.1883	21.9727	71.252	21.9727	71.1292	21.9727	71.1924	21.9727	71.0678	21.9727	71.128	21.9727	71.0056	21.9727	71.0607	21.9727	70.944	21.9727	70.9924	21.9727	70.8848	21.9727	70.9255	21.9727	70.8295	21.9727	70.8623	21.9727	70.7803	21.9727	70.8054	21.9727	70.7393	21.9727	70.7572	21.9727	70.7086	21.9727	70.72	21.9727	70.6903	21.9727	70.6959	21.9727	70.6859
22.7051	71.2781	22.7051	71.2485	22.7051	71.3028	22.7051	71.2145	22.7051	71.3223	22.7051	71.1767	22.7051	71.3363	22.7051	71.1356	22.7051	71.3447	22.7051	71.0922	22.7051	71.3475	22.7051	71.0472	22.7051	71.3447	22.7051	71.0017	22.7051	71.3363	22.7051	70.9569	22.7051	71.3224	22.7051	70.9142	22.7051	71.3028	22.7051	70.8752	22.7051	71.2773	22.7051	70.842	22.7051	71.2458	22.7051	70.8165	22.7051	71.2081	22.7051	70.8009	22.7051	71.1645	22.7051	70.797	22.7051	71.1155	22.7051	70.8056	22.7051	71.0625	22.7051	70.827	22.7051	71.0077	22.7051	70.8603	22.7051	70.9536	22.7051	70.9034
23.4375	70.4805	23.4375	70.4512	23.4375	70.5077	23.4375	70.42	23.4375	70.5331	23.4375	70.3869	23.4375	70.5566	23.4375	70.3523	23.4375	70.5784	23.4375	70.3165	23.4375	70.5987	23.4375	70.2801	23.4375	70.6173	23.4375	70.244	23.4375	70.6339	23.4375	70.2091	23.4375	70.6475	23.4375	70.177	23.4375	70.6568	23.4375	70.1497	23.4375	70.6601	23.4375	70.1295	23.4375	70.6553	23.4375	70.1189	23.4375	70.6402	23.4375	70.1203	23.4375	70.6134	23.4375	70.1356	23.4375	70.5743	23.4375	70.1657	23.4375	70.5235	23.4375	70.2097	23.4375	70.4633	23.4375	70.2656	23.4375	70.3971	23.4375	70.3296
24.1699	70.0657	24.1699	70.0469	24.1699	70.0769	24.1699	70.0207	24.1699	70.0805	24.1699	69.9876	24.1699	70.0766	24.1699	69.9481	24.1699	70.0656	24.1699	69.9031	24.1699	70.0479	24.1699	69.8535	24.1699	70.0241	24.1699	69.8007	24.1699	69.9948	24.1699	69.7461	24.1699	69.9605	24.1699	69.6914	24.1699	69.9216	24.1699	69.6384	24.1699	69.8786	24.1699	69.5892	24.1699	69.8318	24.1699	69.5458	24.1699	69.7818	24.1699	69.5103	24.1699	69.7297	24.1699	69.4846	24.1699	69.6768	24.1699	69.4702	24.1699	69.625	24.1699	69.4681	24.1699	69.5768	24.1699	69.4787	24.1699	69.5347	24.1699	69.5013
25.6348	69.7885	25.6348	69.7883	25.6348	69.789	25.6348	69.7877	25.6348	69.7898	25.6348	69.7864	25.6348	69.7912	25.6348	69.7838	25.6348	69.7931	25.6348	69.7792	25.6348	69.7955	25.6348	69.7723	25.6348	69.798	25.6348	69.7625	25.6348	69.8004	25.6348	69.7501	25.6348	69.8022	25.6348	69.7353	25.6348	69.8026	25.6348	69.7187	25.6348	69.8007	25.6348	69.7014	25.6348	69.7957	25.6348	69.6849	25.6348	69.7868	25.6348	69.6705	25.6348	69.7737	25.6348	69.6601	25.6348	69.7567	25.6348	69.6549	25.6348	69.7367	25.6348	69.6558	25.6348	69.7153	25.6348	69.6632	25.6348	69.6945	25.6348	69.6766
26.3672	68.4615	26.3672	68.4474	26.3672	68.4805	26.3672	68.4383	26.3672	68.5044	26.3672	68.4341	26.3672	68.5329	26.3672	68.4344	26.3672	68.5657	26.3672	68.4389	26.3672	68.6023	26.3672	68.4472	26.3672	68.6421	26.3672	68.4589	26.3672	68.6842	26.3672	68.4738	26.3672	68.7274	26.3672	68.4918	26.3672	68.7702	26.3672	68.5131	26.3672	68.8105	26.3672	68.5382	26.3672	68.846	26.3672	68.5674	26.3672	68.8741	26.3672	68.6011	26.3672	68.8926	26.3672	68.6393	26.3672	68.8997	26.3672	68.6813	26.3672	68.8946	26.3672	68.7258	26.3672	68.8773	26.3672	68.7705	26.3672	68.8492	26.3672	68.8127
27.0996	67.4012	27.0996	67.395	27.0996	67.4113	27.0996	67.3928	27.0996	67.4249	27.0996	67.3948	27.0996	67.4417	27.0996	67.401	27.0996	67.4613	27.0996	67.4111	27.0996	67.4831	27.0996	67.4246	27.0996	67.5066	27.0996	67.4409	27.0996	67.531	27.0996	67.459	27.0996	67.5554	27.0996	67.4779	27.0996	67.5787	27.0996	67.4963	27.0996	67.5994	27.0996	67.5133	27.0996	67.6163	27.0996	67.5284	27.0996	67.6283	27.0996	67.5413	27.0996	67.6345	27.0996	67.5526	27.0996	67.6348	27.0996	67.5629	27.0996	67.6299	27.0996	67.5734	27.0996	67.6208	27.0996	67.5846	27.0996	67.6092	27.0996	67.5967
27.832	67.6525	27.832	67.6718	27.832	67.6378	27.832	67.6953	27.832	67.6277	27.832	67.7226	27.832	67.622	27.832	67.7527	27.832	67.6203	27.832	67.7845	27.832	67.6218	27.832	67.8166	27.832	67.6258	27.832	67.8473	27.832	67.6316	27.832	67.875	27.832	67.638	27.832	67.8976	27.832	67.6445	27.832	67.9134	27.832	67.6504	27.832	67.9206	27.832	67.6557	27.832	67.9184	27.832	67.6606	27.832	67.9062	27.832	67.6663	27.832	67.8848	27.832	67.6741	27.832	67.856	27.832	67.6857	27.832	67.8226	27.832	67.7026	27.832	67.7877	27.832	67.7257	27.832	67.7545
29.2969	70.1975	29.2969	70.2145	29.2969	70.1848	29.2969	70.2351	29.2969	70.1766	29.2969	70.2585	29.2969	70.1733	29.2969	70.2838	29.2969	70.1749	29.2969	70.3098	29.2969	70.1812	29.2969	70.3355	29.2969	70.1919	29.2969	70.3598	29.2969	70.2065	29.2969	70.3816	29.2969	70.2246	29.2969	70.4002	29.2969	70.2453	29.2969	70.4149	29.2969	70.268	29.2969	70.4256	29.2969	70.2915	29.2969	70.4323	29.2969	70.3151	29.2969	70.4352	29.2969	70.3375	29.2969	70.435	29.2969	70.3581	29.2969	70.4324	29.2969	70.3761	29.2969	70.4277	29.2969	70.3912	29.2969	70.4214	29.2969	70.4035	29.2969	70.4134
30.0293	71.5785	30.0293	71.5812	30.0293	71.5793	30.0293	71.5872	30.0293	71.5838	30.0293	71.5965	30.0293	71.5921	30.0293	71.6086	30.0293	71.6043	30.0293	71.6233	30.0293	71.6203	30.0293	71.6403	30.0293	71.64	30.0293	71.659	30.0293	71.663	30.0293	71.6789	30.0293	71.689	30.0293	71.6998	30.0293	71.7172	30.0293	71.721	30.0293	71.7467	30.0293	71.7424	30.0293	71.7761	30.0293	71.7637	30.0293	71.8041	30.0293	71.7846	30.0293	71.8291	30.0293	71.8048	30.0293	71.8494	30.0293	71.824	30.0293	71.8638	30.0293	71.8415	30.0293	71.8714	30.0293	71.8561	30.0293	71.8723	30.0293	71.8668
31.4941	75.8619	31.4941	75.8665	31.4941	75.8529	31.4941	75.8665	31.4941	75.8396	31.4941	75.8621	31.4941	75.8221	31.4941	75.8532	31.4941	75.8006	31.4941	75.8399	31.4941	75.7754	31.4941	75.8226	31.4941	75.7466	31.4941	75.8017	31.4941	75.7147	31.4941	75.7775	31.4941	75.6803	31.4941	75.7505	31.4941	75.6442	31.4941	75.7213	31.4941	75.6075	31.4941	75.6903	31.4941	75.5719	31.4941	75.6582	31.4941	75.539	31.4941	75.6254	31.4941	75.5109	31.4941	75.5928	31.4941	75.4893	31.4941	75.5613	31.4941	75.4756	31.4941	75.5322	31.4941	75.4708	31.4941	75.5071	31.4941	75.475	31.4941	75.4875
32.2266	78.3639	32.2266	78.3608	32.2266	78.3608	32.2266	78.3516	32.2266	78.3515	32.2266	78.3364	32.2266	78.3362	32.2266	78.3155	32.2266	78.3152	32.2266	78.2891	32.2266	78.2888	32.2266	78.258	32.2266	78.2575	32.2266	78.2227	32.2266	78.222	32.2266	78.1843	32.2266	78.1832	32.2266	78.1438	32.2266	78.1421	32.2266	78.1026	32.2266	78.1	32.2266	78.0618	32.2266	78.0583	32.2266	78.0229	32.2266	78.0185	32.2266	77.9871	32.2266	77.9821	32.2266	77.9558	32.2266	77.9506	32.2266	77.9298	32.2266	77.925	32.2266	77.9102	32.2266	77.9065	32.2266	77.8976	32.2266	77.8956	32.2266	77.8927
33.6914	81.8984	33.6914	81.8975	33.6914	81.8929	33.6914	81.8903	33.6914	81.8811	33.6914	81.8768	33.6914	81.8633	33.6914	81.8574	33.6914	81.8401	33.6914	81.8326	33.6914	81.8121	33.6914	81.8029	33.6914	81.7803	33.6914	81.7692	33.6914	81.7458	33.6914	81.7324	33.6914	81.7099	33.6914	81.694	33.6914	81.6742	33.6914	81.6554	33.6914	81.6398	33.6914	81.6183	33.6914	81.6082	33.6914	81.5843	33.6914	81.58	33.6914	81.555	33.6914	81.556	33.6914	81.5314	33.6914	81.5362	33.6914	81.5139	33.6914	81.5205	33.6914	81.5027	33.6914	81.5087	33.6914	81.4972	33.6914	81.5008	33.6914	81.4968
34.4238	83.2803	34.4238	83.2818	34.4238	83.2708	34.4238	83.2751	34.4238	83.2537	34.4238	83.2605	34.4238	83.2295	34.4238	83.238	34.4238	83.1988	34.4238	83.2082	34.4238	83.1625	34.4238	83.1718	34.4238	83.1219	34.4238	83.1297	34.4238	83.0782	34.4238	83.0834	34.4238	83.0329	34.4238	83.0343	34.4238	82.9876	34.4238	82.9844	34.4238	82.9438	34.4238	82.9357	34.4238	82.9031	34.4238	82.8903	34.4238	82.8666	34.4238	82.8501	34.4238	82.835	34.4238	82.8166	34.4238	82.8087	34.4238	82.7908	34.4238	82.788	34.4238	82.7729	34.4238	82.7729	34.4238	82.7628	34.4238	82.7634	34.4238	82.7598
35.8887	86.4964	35.8887	86.4926	35.8887	86.4916	35.8887	86.4802	35.8887	86.4783	35.8887	86.4593	35.8887	86.457	35.8887	86.4303	35.8887	86.4281	35.8887	86.3937	35.8887	86.3923	35.8887	86.3503	35.8887	86.3505	35.8887	86.3012	35.8887	86.3037	35.8887	86.2477	35.8887	86.2533	35.8887	86.1915	35.8887	86.2005	35.8887	86.1343	35.8887	86.147	35.8887	86.0782	35.8887	86.0943	35.8887	86.0254	35.8887	86.044	35.8887	85.9778	35.8887	85.9977	35.8887	85.9374	35.8887	85.9568	35.8887	85.9055	35.8887	85.9225	35.8887	85.8833	35.8887	85.8959	35.8887	85.8713	35.8887	85.8781	35.8887	85.8697
37.3535	89.0097	37.3535	89.0035	37.3535	89.0079	37.3535	88.9894	37.3535	88.9982	37.3535	88.9678	37.3535	88.9808	37.3535	88.9391	37.3535	88.9561	37.3535	88.9041	37.3535	88.925	37.3535	88.8638	37.3535	88.8881	37.3535	88.8192	37.3535	88.8465	37.3535	88.7717	37.3535	88.8015	37.3535	88.7228	37.3535	88.7544	37.3535	88.6741	37.3535	88.7067	37.3535	88.6272	37.3535	88.6598	37.3535	88.5838	37.3535	88.6153	37.3535	88.5453	37.3535	88.5745	37.3535	88.513	37.3535	88.5385	37.3535	88.4879	37.3535	88.5084	37.3535	88.4707	37.3535	88.4852	37.3535	88.4619	37.3535	88.4693	37.3535	88.4614
38.8184	91.1253	38.8184	91.1172	38.8184	91.1251	38.8184	91.1008	38.8184	91.1167	38.8184	91.0765	38.8184	91.1003	38.8184	91.045	38.8184	91.0766	38.8184	91.0069	38.8184	91.0463	38.8184	90.9636	38.8184	91.0102	38.8184	90.9162	38.8184	90.9696	38.8184	90.8664	38.8184	90.9256	38.8184	90.8158	38.8184	90.8796	38.8184	90.7663	38.8184	90.8332	38.8184	90.7197	38.8184	90.7876	38.8184	90.6776	38.8184	90.7442	38.8184	90.6415	38.8184	90.704	38.8184	90.6128	38.8184	90.668	38.8184	90.5921	38.8184	90.6371	38.8184	90.58	38.8184	90.6118	38.8184	90.5763	38.8184	90.5927	38.8184	90.5807
39.5508	92.074	39.5508	92.0672	39.5508	92.0721	39.5508	92.0516	39.5508	92.0617	39.5508	92.0277	39.5508	92.0431	39.5508	91.9961	39.5508	92.0172	39.5508	91.9575	39.5508	91.9846	39.5508	91.9132	39.5508	91.9464	39.5508	91.8645	39.5508	91.9037	39.5508	91.8131	39.5508	91.858	39.5508	91.7607	39.5508	91.8103	39.5508	91.7091	39.5508	91.7623	39.5508	91.6601	39.5508	91.7152	39.5508	91.6155	39.5508	91.6703	39.5508	91.5767	39.5508	91.6287	39.5508	91.5451	39.5508	91.5915	39.5508	91.5216	39.5508	91.5596	39.5508	91.5068	39.5508	91.5338	39.5508	91.5009	39.5508	91.5149	39.5508	91.5038
41.0156	93.9479	41.0156	93.9372	41.0156	93.9499	41.0156	93.9184	41.0156	93.9434	41.0156	93.8919	41.0156	93.9287	41.0156	93.8586	41.0156	93.9062	41.0156	93.8199	41.0156	93.8768	41.0156	93.7771	41.0156	93.8417	41.0156	93.7318	41.0156	93.8022	41.0156	93.6857	41.0156	93.7596	41.0156	93.6407	41.0156	93.7157	41.0156	93.5983	41.0156	93.6719	41.0156	93.56	41.0156	93.6297	41.0156	93.5268	41.0156	93.5905	41.0156	93.4996	41.0156	93.5554	41.0156	93.4787	41.0156	93.525	41.0156	93.4642	41.0156	93.4999	41.0156	93.4559	41.0156	93.4802	41.0156	93.4536	41.0156	93.4658	41.0156	93.457
42.4805	95.6048	42.4805	95.5945	42.4805	95.6042	42.4805	95.5738	42.4805	95.5931	42.4805	95.5429	42.4805	95.5718	42.4805	95.5027	42.4805	95.5411	42.4805	95.4544	42.4805	95.5022	42.4805	95.3994	42.4805	95.4562	42.4805	95.3395	42.4805	95.4047	42.4805	95.2767	42.4805	95.3494	42.4805	95.2132	42.4805	95.2919	42.4805	95.1514	42.4805	95.2341	42.4805	95.0935	42.4805	95.1775	42.4805	95.0417	42.4805	95.1239	42.4805	94.9977	42.4805	95.0743	42.4805	94.9629	42.4805	95.0302	42.4805	94.938	42.4805	94.9923	42.4805	94.9234	42.4805	94.9616	42.4805	94.919	42.4805	94.9386	42.4805	94.9242
43.9453	97.3719	43.9453	97.3675	43.9453	97.3651	43.9453	97.3521	43.9453	97.3476	43.9453	97.326	43.9453	97.3199	43.9453	97.2897	43.9453	97.2829	43.9453	97.2442	43.9453	97.2376	43.9453	97.1908	43.9453	97.1856	43.9453	97.1311	43.9453	97.1284	43.9453	97.0669	43.9453	97.0677	43.9453	97.0003	43.9453	97.0054	43.9453	96.9338	43.9453	96.9435	43.9453	96.8696	43.9453	96.8838	43.9453	96.8102	43.9453	96.8281	43.9453	96.7577	43.9453	96.7778	43.9453	96.7139	43.9453	96.7342	43.9453	96.68	43.9453	96.6982	43.9453	96.6569	43.9453	96.6706	43.9453	96.6448	43.9453	96.6522	43.9453	96.6433
45.4102	98.8263	45.4102	98.822	45.4102	98.8198	45.4102	98.807	45.4102	98.8028	45.4102	98.7816	45.4102	98.7758	45.4102	98.7466	45.4102	98.7399	45.4102	98.7029	45.4102	98.6959	45.4102	98.6518	45.4102	98.6455	45.4102	98.5949	45.4102	98.5901	45.4102	98.5341	45.4102	98.5315	45.4102	98.4712	45.4102	98.4715	45.4102	98.4085	45.4102	98.412	45.4102	98.3481	45.4102	98.3547	45.4102	98.292	45.4102	98.3014	45.4102	98.2421	45.4102	98.2534	45.4102	98.2	45.4102	98.2119	45.4102	98.167	45.4102	98.178	45.4102	98.1439	45.4102	98.1523	45.4102	98.131	45.4102	98.1356	45.4102	98.1283
47.6074	100.906	47.6074	100.902	47.6074	100.897	47.6074	100.887	47.6074	100.877	47.6074	100.86	47.6074	100.845	47.6074	100.822	47.6074	100.804	47.6074	100.775	47.6074	100.753	47.6074	100.721	47.6074	100.695	47.6074	100.659	47.6074	100.631	47.6074	100.594	47.6074	100.564	47.6074	100.527	47.6074	100.496	47.6074	100.459	47.6074	100.428	47.6074	100.394	47.6074	100.365	47.6074	100.333	47.6074	100.306	47.6074	100.278	47.6074	100.255	47.6074	100.231	47.6074	100.211	47.6074	100.193	47.6074	100.177	47.6074	100.164	47.6074	100.153	47.6074	100.145	47.6074	100.14	47.6074	100.137
49.0723	102.143	49.0723	102.138	49.0723	102.135	49.0723	102.121	49.0723	102.116	49.0723	102.092	49.0723	102.085	49.0723	102.053	49.0723	102.044	49.0723	102.005	49.0723	101.993	49.0723	101.948	49.0723	101.935	49.0723	101.886	49.0723	101.87	49.0723	101.819	49.0723	101.801	49.0723	101.749	49.0723	101.73	49.0723	101.68	49.0723	101.659	49.0723	101.612	49.0723	101.592	49.0723	101.549	49.0723	101.529	49.0723	101.491	49.0723	101.474	49.0723	101.442	49.0723	101.426	49.0723	101.401	49.0723	101.389	49.0723	101.37	49.0723	101.362	49.0723	101.351	49.0723	101.347	49.0723	101.343
50.5371	103.246	50.5371	103.238	50.5371	103.242	50.5371	103.219	50.5371	103.227	50.5371	103.19	50.5371	103.201	50.5371	103.15	50.5371	103.165	50.5371	103.102	50.5371	103.12	50.5371	103.047	50.5371	103.067	50.5371	102.987	50.5371	103.009	50.5371	102.923	50.5371	102.947	50.5371	102.859	50.5371	102.883	50.5371	102.795	50.5371	102.82	50.5371	102.735	50.5371	102.759	50.5371	102.679	50.5371	102.702	50.5371	102.631	50.5371	102.651	50.5371	102.59	50.5371	102.607	50.5371	102.558	50.5371	102.572	50.5371	102.535	50.5371	102.545	50.5371	102.523	50.5371	102.528	50.5371	102.52
52.7344	104.661	52.7344	104.652	52.7344	104.659	52.7344	104.631	52.7344	104.645	52.7344	104.599	52.7344	104.62	52.7344	104.557	52.7344	104.585	52.7344	104.507	52.7344	104.542	52.7344	104.45	52.7344	104.491	52.7344	104.388	52.7344	104.434	52.7344	104.324	52.7344	104.374	52.7344	104.259	52.7344	104.313	52.7344	104.197	52.7344	104.252	52.7344	104.139	52.7344	104.193	52.7344	104.087	52.7344	104.139	52.7344	104.043	52.7344	104.091	52.7344	104.008	52.7344	104.048	52.7344	103.981	52.7344	104.014	52.7344	103.964	52.7344	103.987	52.7344	103.957	52.7344	103.968	52.7344	103.958
54.1992	105.491	54.1992	105.483	54.1992	105.486	54.1992	105.463	54.1992	105.47	54.1992	105.432	54.1992	105.442	54.1992	105.39	54.1992	105.404	54.1992	105.339	54.1992	105.358	54.1992	105.282	54.1992	105.303	54.1992	105.219	54.1992	105.244	54.1992	105.153	54.1992	105.182	54.1992	105.087	54.1992	105.118	54.1992	105.023	54.1992	105.056	54.1992	104.963	54.1992	104.997	54.1992	104.909	54.1992	104.942	54.1992	104.863	54.1992	104.894	54.1992	104.826	54.1992	104.853	54.1992	104.798	54.1992	104.819	54.1992	104.779	54.1992	104.794	54.1992	104.769	54.1992	104.777	54.1992	104.769
56.3965	106.654	56.3965	106.647	56.3965	106.649	56.3965	106.627	56.3965	106.632	56.3965	106.595	56.3965	106.602	56.3965	106.553	56.3965	106.562	56.3965	106.501	56.3965	106.512	56.3965	106.442	56.3965	106.454	56.3965	106.377	56.3965	106.391	56.3965	106.309	56.3965	106.323	56.3965	106.241	56.3965	106.255	56.3965	106.173	56.3965	106.187	56.3965	106.11	56.3965	106.122	56.3965	106.052	56.3965	106.063	56.3965	106.001	56.3965	106.01	56.3965	105.959	56.3965	105.966	56.3965	105.925	56.3965	105.93	56.3965	105.901	56.3965	105.905	56.3965	105.887	56.3965	105.889	56.3965	105.883
