"SPL Vertical"																																																																							
"On-Axis"		"10°"		"-10°"		"20°"		"-20°"		"30°"		"-30°"		"40°"		"-40°"		"50°"		"-50°"		"60°"		"-60°"		"70°"		"-70°"		"80°"		"-80°"		"90°"		"-90°"		"100°"		"-100°"		"110°"		"-110°"		"120°"		"-120°"		"130°"		"-130°"		"140°"		"-140°"		"150°"		"-150°"		"160°"		"-160°"		"170°"		"-170°"		"180°"	
"Frequency [Hz]"	"Sound Pessure Level [dB]  / [2.83V 1m] "	"Frequency [Hz]"	"Sound Pessure Level [dB]  / [2.83V 1m] "	"Frequency [Hz]"	"Sound Pessure Level [dB]  / [2.83V 1m] "	"Frequency [Hz]"	"Sound Pessure Level [dB]  / [2.83V 1m] "	"Frequency [Hz]"	"Sound Pessure Level [dB]  / [2.83V 1m] "	"Frequency [Hz]"	"Sound Pessure Level [dB]  / [2.83V 1m] "	"Frequency [Hz]"	"Sound Pessure Level [dB]  / [2.83V 1m] "	"Frequency [Hz]"	"Sound Pessure Level [dB]  / [2.83V 1m] "	"Frequency [Hz]"	"Sound Pessure Level [dB]  / [2.83V 1m] "	"Frequency [Hz]"	"Sound Pessure Level [dB]  / [2.83V 1m] "	"Frequency [Hz]"	"Sound Pessure Level [dB]  / [2.83V 1m] "	"Frequency [Hz]"	"Sound Pessure Level [dB]  / [2.83V 1m] "	"Frequency [Hz]"	"Sound Pessure Level [dB]  / [2.83V 1m] "	"Frequency [Hz]"	"Sound Pessure Level [dB]  / [2.83V 1m] "	"Frequency [Hz]"	"Sound Pessure Level [dB]  / [2.83V 1m] "	"Frequency [Hz]"	"Sound Pessure Level [dB]  / [2.83V 1m] "	"Frequency [Hz]"	"Sound Pessure Level [dB]  / [2.83V 1m] "	"Frequency [Hz]"	"Sound Pessure Level [dB]  / [2.83V 1m] "	"Frequency [Hz]"	"Sound Pessure Level [dB]  / [2.83V 1m] "	"Frequency [Hz]"	"Sound Pessure Level [dB]  / [2.83V 1m] "	"Frequency [Hz]"	"Sound Pessure Level [dB]  / [2.83V 1m] "	"Frequency [Hz]"	"Sound Pessure Level [dB]  / [2.83V 1m] "	"Frequency [Hz]"	"Sound Pessure Level [dB]  / [2.83V 1m] "	"Frequency [Hz]"	"Sound Pessure Level [dB]  / [2.83V 1m] "	"Frequency [Hz]"	"Sound Pessure Level [dB]  / [2.83V 1m] "	"Frequency [Hz]"	"Sound Pessure Level [dB]  / [2.83V 1m] "	"Frequency [Hz]"	"Sound Pessure Level [dB]  / [2.83V 1m] "	"Frequency [Hz]"	"Sound Pessure Level [dB]  / [2.83V 1m] "	"Frequency [Hz]"	"Sound Pessure Level [dB]  / [2.83V 1m] "	"Frequency [Hz]"	"Sound Pessure Level [dB]  / [2.83V 1m] "	"Frequency [Hz]"	"Sound Pessure Level [dB]  / [2.83V 1m] "	"Frequency [Hz]"	"Sound Pessure Level [dB]  / [2.83V 1m] "	"Frequency [Hz]"	"Sound Pessure Level [dB]  / [2.83V 1m] "	"Frequency [Hz]"	"Sound Pessure Level [dB]  / [2.83V 1m] "	"Frequency [Hz]"	"Sound Pessure Level [dB]  / [2.83V 1m] "	"Frequency [Hz]"	"Sound Pessure Level [dB]  / [2.83V 1m] "
20.5078	71.5714	20.5078	71.3719	20.5078	71.7706	20.5078	71.1784	20.5078	71.9631	20.5078	70.996	20.5078	72.1416	20.5078	70.8293	20.5078	72.2989	20.5078	70.6822	20.5078	72.4279	20.5078	70.5576	20.5078	72.5225	20.5078	70.4579	20.5078	72.5776	20.5078	70.385	20.5078	72.59	20.5078	70.3398	20.5078	72.5587	20.5078	70.3231	20.5078	72.4854	20.5078	70.3347	20.5078	72.374	20.5078	70.3741	20.5078	72.2303	20.5078	70.4403	20.5078	72.0618	20.5078	70.5317	20.5078	71.8763	20.5078	70.6466	20.5078	71.6817	20.5078	70.7827	20.5078	71.485	20.5078	70.9376	20.5078	71.2924	20.5078	71.1086
21.2402	70.6892	21.2402	70.4474	21.2402	70.9289	21.2402	70.21	21.2402	71.1594	21.2402	69.9829	21.2402	71.373	21.2402	69.7711	21.2402	71.5619	21.2402	69.5794	21.2402	71.7182	21.2402	69.4117	21.2402	71.8347	21.2402	69.2715	21.2402	71.905	21.2402	69.1615	21.2402	71.9244	21.2402	69.0842	21.2402	71.8905	21.2402	69.0413	21.2402	71.8034	21.2402	69.0343	21.2402	71.6659	21.2402	69.0639	21.2402	71.4836	21.2402	69.1303	21.2402	71.2645	21.2402	69.2333	21.2402	71.0183	21.2402	69.3716	21.2402	70.7559	21.2402	69.5435	21.2402	70.4879	21.2402	69.746	21.2402	70.2247	21.2402	69.9749
21.9727	71.4352	21.9727	71.2103	21.9727	71.6572	21.9727	70.9884	21.9727	71.8697	21.9727	70.7751	21.9727	72.0656	21.9727	70.5752	21.9727	72.2375	21.9727	70.393	21.9727	72.3781	21.9727	70.2326	21.9727	72.4802	21.9727	70.0971	21.9727	72.538	21.9727	69.9895	21.9727	72.5471	21.9727	69.9121	21.9727	72.5055	21.9727	69.8668	21.9727	72.4138	21.9727	69.8547	21.9727	72.2753	21.9727	69.8765	21.9727	72.0961	21.9727	69.9323	21.9727	71.8846	21.9727	70.0218	21.9727	71.6505	21.9727	70.144	21.9727	71.404	21.9727	70.2971	21.9727	71.1553	21.9727	70.4789	21.9727	70.9133	21.9727	70.6859
22.7051	71.2781	22.7051	71.0272	22.7051	71.5313	22.7051	70.786	22.7051	71.779	22.7051	70.5608	22.7051	72.0127	22.7051	70.3571	22.7051	72.2235	22.7051	70.1798	22.7051	72.4027	22.7051	70.0325	22.7051	72.5422	22.7051	69.9183	22.7051	72.6352	22.7051	69.8391	22.7051	72.6765	22.7051	69.7963	22.7051	72.6637	22.7051	69.7902	22.7051	72.5969	22.7051	69.8206	22.7051	72.4794	22.7051	69.8864	22.7051	72.3171	22.7051	69.9861	22.7051	72.1181	22.7051	70.1176	22.7051	71.8918	22.7051	70.2782	22.7051	71.6481	22.7051	70.4651	22.7051	71.3967	22.7051	70.6748	22.7051	71.146	22.7051	70.9034
23.4375	70.4805	23.4375	70.1841	23.4375	70.7811	23.4375	69.9007	23.4375	71.0769	23.4375	69.6378	23.4375	71.358	23.4375	69.4025	23.4375	71.6148	23.4375	69.2006	23.4375	71.8373	23.4375	69.037	23.4375	72.0168	23.4375	68.9155	23.4375	72.1452	23.4375	68.8388	23.4375	72.217	23.4375	68.8084	23.4375	72.2285	23.4375	68.8247	23.4375	72.1794	23.4375	68.8868	23.4375	72.0719	23.4375	68.9927	23.4375	71.9115	23.4375	69.1395	23.4375	71.7057	23.4375	69.3233	23.4375	71.4637	23.4375	69.5396	23.4375	71.1954	23.4375	69.7832	23.4375	70.911	23.4375	70.0486	23.4375	70.6195	23.4375	70.3296
24.1699	70.0657	24.1699	69.7424	24.1699	70.3888	24.1699	69.4272	24.1699	70.7023	24.1699	69.1279	24.1699	70.9966	24.1699	68.8518	24.1699	71.2613	24.1699	68.6052	24.1699	71.4864	24.1699	68.394	24.1699	71.6621	24.1699	68.2235	24.1699	71.78	24.1699	68.0982	24.1699	71.8336	24.1699	68.0216	24.1699	71.8193	24.1699	67.9963	24.1699	71.7365	24.1699	68.0236	24.1699	71.5884	24.1699	68.1033	24.1699	71.3814	24.1699	68.234	24.1699	71.1247	24.1699	68.4125	24.1699	70.8295	24.1699	68.6344	24.1699	70.508	24.1699	68.8943	24.1699	70.1721	24.1699	69.1857	24.1699	69.8332	24.1699	69.5013
25.6348	69.7885	25.6348	69.3752	25.6348	70.2083	25.6348	68.9801	25.6348	70.6219	25.6348	68.6141	25.6348	71.0162	25.6348	68.2868	25.6348	71.3775	25.6348	68.0069	25.6348	71.6928	25.6348	67.7814	25.6348	71.9495	25.6348	67.6161	25.6348	72.1369	25.6348	67.5149	25.6348	72.2465	25.6348	67.48	25.6348	72.2732	25.6348	67.5117	25.6348	72.2158	25.6348	67.6084	25.6348	72.0767	25.6348	67.7668	25.6348	71.8629	25.6348	67.9821	25.6348	71.5842	25.6348	68.2484	25.6348	71.2531	25.6348	68.5588	25.6348	70.8834	25.6348	68.9056	25.6348	70.4889	25.6348	69.2811	25.6348	70.0826	25.6348	69.6766
26.3672	68.4615	26.3672	67.9128	26.3672	69.016	26.3672	67.3866	26.3672	69.5598	26.3672	66.8988	26.3672	70.0763	26.3672	66.4647	26.3672	70.5495	26.3672	66.0985	26.3672	70.9642	26.3672	65.8123	26.3672	71.3066	26.3672	65.6159	26.3672	71.5649	26.3672	65.5157	26.3672	71.7301	26.3672	65.5146	26.3672	71.7969	26.3672	65.6115	26.3672	71.7634	26.3672	65.8013	26.3672	71.6323	26.3672	66.0757	26.3672	71.41	26.3672	66.4237	26.3672	71.1061	26.3672	66.8326	26.3672	70.7326	26.3672	67.2892	26.3672	70.3029	26.3672	67.7799	26.3672	69.8308	26.3672	68.292	26.3672	69.3298	26.3672	68.8127
27.0996	67.4012	27.0996	66.6973	27.0996	68.0998	27.0996	66.0081	27.0996	68.7734	27.0996	65.355	27.0996	69.4037	27.0996	64.7593	27.0996	69.9732	27.0996	64.2423	27.0996	70.466	27.0996	63.824	27.0996	70.8675	27.0996	63.5219	27.0996	71.1658	27.0996	63.3492	27.0996	71.3516	27.0996	63.3135	27.0996	71.419	27.0996	63.4158	27.0996	71.3662	27.0996	63.6497	27.0996	71.1956	27.0996	64.0032	27.0996	70.9134	27.0996	64.4594	27.0996	70.53	27.0996	64.9989	27.0996	70.0582	27.0996	65.6016	27.0996	69.5129	27.0996	66.2476	27.0996	68.9101	27.0996	66.9184	27.0996	68.266	27.0996	67.5967
27.832	67.6525	27.832	66.8842	27.832	68.4099	27.832	66.1273	27.832	69.1359	27.832	65.4053	27.832	69.8111	27.832	64.743	27.832	70.4177	27.832	64.1657	27.832	70.9395	27.832	63.6973	27.832	71.3617	27.832	63.3587	27.832	71.6722	27.832	63.1652	27.832	71.8615	27.832	63.1249	27.832	71.924	27.832	63.2372	27.832	71.8577	27.832	63.4935	27.832	71.6652	27.832	63.8788	27.832	71.3536	27.832	64.3736	27.832	70.9337	27.832	64.9564	27.832	70.4194	27.832	65.6058	27.832	69.8269	27.832	66.3013	27.832	69.1735	27.832	67.0235	27.832	68.4769	27.832	67.7545
29.2969	70.1975	29.2969	69.5951	29.2969	70.8208	29.2969	69.0347	29.2969	71.4418	29.2969	68.5346	29.2969	72.0373	29.2969	68.1079	29.2969	72.5849	29.2969	67.7631	29.2969	73.064	29.2969	67.5035	29.2969	73.4569	29.2969	67.3291	29.2969	73.7488	29.2969	67.2381	29.2969	73.9289	29.2969	67.2283	29.2969	73.991	29.2969	67.2982	29.2969	73.9336	29.2969	67.4472	29.2969	73.7604	29.2969	67.6745	29.2969	73.4799	29.2969	67.9786	29.2969	73.1045	29.2969	68.3555	29.2969	72.6504	29.2969	68.7986	29.2969	72.1354	29.2969	69.2981	29.2969	71.5784	29.2969	69.8413	29.2969	70.9983	29.2969	70.4134
30.0293	71.5785	30.0293	71.1074	30.0293	72.0894	30.0293	70.6922	30.0293	72.6194	30.0293	70.3427	30.0293	73.1445	30.0293	70.0625	30.0293	73.6402	30.0293	69.8499	30.0293	74.083	30.0293	69.6998	30.0293	74.452	30.0293	69.6063	30.0293	74.7301	30.0293	69.5637	30.0293	74.9048	30.0293	69.5686	30.0293	74.9687	30.0293	69.6197	30.0293	74.9203	30.0293	69.7181	30.0293	74.7638	30.0293	69.8664	30.0293	74.5087	30.0293	70.0677	30.0293	74.1693	30.0293	70.3244	30.0293	73.7633	30.0293	70.6368	30.0293	73.3104	30.0293	71.0025	30.0293	72.8307	30.0293	71.4156	30.0293	72.3436	30.0293	71.8668
31.4941	75.8619	31.4941	75.5198	31.4941	76.23	31.4941	75.2129	31.4941	76.6115	31.4941	74.9462	31.4941	76.9902	31.4941	74.7215	31.4941	77.3482	31.4941	74.5379	31.4941	77.6668	31.4941	74.3932	31.4941	77.9281	31.4941	74.2843	31.4941	78.1164	31.4941	74.2089	31.4941	78.2199	31.4941	74.1652	31.4941	78.2311	31.4941	74.1532	31.4941	78.1483	31.4941	74.1739	31.4941	77.9755	31.4941	74.23	31.4941	77.7223	31.4941	74.3249	31.4941	77.4035	31.4941	74.4627	31.4941	77.037	31.4941	74.6469	31.4941	76.6432	31.4941	74.8797	31.4941	76.2419	31.4941	75.1611	31.4941	75.8516	31.4941	75.4875
32.2266	78.3639	32.2266	78.0966	32.2266	78.6501	32.2266	77.8543	32.2266	78.9464	32.2266	77.6404	32.2266	79.2408	32.2266	77.456	32.2266	79.5194	32.2266	77.3007	32.2266	79.7672	32.2266	77.1734	32.2266	79.9689	32.2266	77.0726	32.2266	80.1112	32.2266	76.9972	32.2266	80.1834	32.2266	76.9467	32.2266	80.1791	32.2266	76.9216	32.2266	80.0969	32.2266	76.9231	32.2266	79.9409	32.2266	76.9536	32.2266	79.7202	32.2266	77.0159	32.2266	79.4483	32.2266	77.1131	32.2266	79.1415	32.2266	77.2484	32.2266	78.8171	32.2266	77.4236	32.2266	78.4916	32.2266	77.639	32.2266	78.1796	32.2266	77.8927
33.6914	81.8984	33.6914	81.7082	33.6914	82.1035	33.6914	81.5365	33.6914	82.3174	33.6914	81.385	33.6914	82.5319	33.6914	81.254	33.6914	82.7362	33.6914	81.1429	33.6914	82.9183	33.6914	81.051	33.6914	83.0659	33.6914	80.9772	33.6914	83.1675	33.6914	80.921	33.6914	83.2144	33.6914	80.8821	33.6914	83.2013	33.6914	80.8611	33.6914	83.1279	33.6914	80.8586	33.6914	82.9988	33.6914	80.8762	33.6914	82.8228	33.6914	80.9155	33.6914	82.6123	33.6914	80.9785	33.6914	82.3813	33.6914	81.067	33.6914	82.1435	33.6914	81.1826	33.6914	81.9109	33.6914	81.326	33.6914	81.6931	33.6914	81.4968
34.4238	83.2803	34.4238	83.0864	34.4238	83.4862	34.4238	82.9089	34.4238	83.6979	34.4238	82.75	34.4238	83.9069	34.4238	82.6107	34.4238	84.1027	34.4238	82.4911	34.4238	84.2738	34.4238	82.3906	34.4238	84.4085	34.4238	82.3089	34.4238	84.4961	34.4238	82.2453	34.4238	84.5287	34.4238	82.1998	34.4238	84.5018	34.4238	82.1726	34.4238	84.4156	34.4238	82.1644	34.4238	84.2752	34.4238	82.1764	34.4238	84.09	34.4238	82.2101	34.4238	83.8727	34.4238	82.2671	34.4238	83.6373	34.4238	82.3493	34.4238	83.3977	34.4238	82.4583	34.4238	83.166	34.4238	82.595	34.4238	82.9513	34.4238	82.7598
35.8887	86.4964	35.8887	86.3137	35.8887	86.6848	35.8887	86.1411	35.8887	86.8735	35.8887	85.9813	35.8887	87.0554	35.8887	85.8363	35.8887	87.222	35.8887	85.7072	35.8887	87.3642	35.8887	85.5947	35.8887	87.4727	35.8887	85.4996	35.8887	87.5392	35.8887	85.4223	35.8887	87.5572	35.8887	85.3635	35.8887	87.5234	35.8887	85.324	35.8887	87.438	35.8887	85.3052	35.8887	87.3052	35.8887	85.3083	35.8887	87.1326	35.8887	85.3351	35.8887	86.9305	35.8887	85.3871	35.8887	86.7107	35.8887	85.4659	35.8887	86.4849	35.8887	85.5726	35.8887	86.264	35.8887	85.7075	35.8887	86.0567	35.8887	85.8697
37.3535	89.0097	37.3535	88.8436	37.3535	89.1801	37.3535	88.686	37.3535	89.3495	37.3535	88.5396	37.3535	89.5115	37.3535	88.4067	37.3535	89.6585	37.3535	88.2887	37.3535	89.7825	37.3535	88.1865	37.3535	89.8753	37.3535	88.101	37.3535	89.9301	37.3535	88.0326	37.3535	89.9415	37.3535	87.9822	37.3535	89.9074	37.3535	87.9502	37.3535	89.8285	37.3535	87.9376	37.3535	89.7092	37.3535	87.9454	37.3535	89.5566	37.3535	87.9743	37.3535	89.38	37.3535	88.0256	37.3535	89.1894	37.3535	88.0998	37.3535	88.9945	37.3535	88.1975	37.3535	88.8038	37.3535	88.3184	37.3535	88.6244	37.3535	88.4614
38.8184	91.1253	38.8184	90.9655	38.8184	91.2875	38.8184	90.8122	38.8184	91.4467	38.8184	90.6686	38.8184	91.5969	38.8184	90.5373	38.8184	91.7312	38.8184	90.4202	38.8184	91.8422	38.8184	90.3186	38.8184	91.9229	38.8184	90.2337	38.8184	91.9672	38.8184	90.1662	38.8184	91.9709	38.8184	90.117	38.8184	91.9325	38.8184	90.0867	38.8184	91.8534	38.8184	90.076	38.8184	91.7381	38.8184	90.0853	38.8184	91.5937	38.8184	90.1154	38.8184	91.4286	38.8184	90.1665	38.8184	91.2521	38.8184	90.239	38.8184	91.0725	38.8184	90.3327	38.8184	90.8971	38.8184	90.447	38.8184	90.7317	38.8184	90.5807
39.5508	92.074	39.5508	91.9135	39.5508	92.2358	39.5508	91.7587	39.5508	92.3937	39.5508	91.6131	39.5508	92.5415	39.5508	91.4793	39.5508	92.6725	39.5508	91.3596	39.5508	92.7796	39.5508	91.2555	39.5508	92.8561	39.5508	91.1683	39.5508	92.8961	39.5508	91.099	39.5508	92.8958	39.5508	91.0483	39.5508	92.854	39.5508	91.0169	39.5508	92.7722	39.5508	91.0054	39.5508	92.6551	39.5508	91.0142	39.5508	92.5098	39.5508	91.0437	39.5508	92.3447	39.5508	91.0943	39.5508	92.1688	39.5508	91.166	39.5508	91.9905	39.5508	91.2587	39.5508	91.8167	39.5508	91.3717	39.5508	91.6531	39.5508	91.5038
41.0156	93.9479	41.0156	93.8023	41.0156	94.0944	41.0156	93.6618	41.0156	94.2368	41.0156	93.5299	41.0156	94.3695	41.0156	93.4092	41.0156	94.4861	41.0156	93.3018	41.0156	94.5801	41.0156	93.2094	41.0156	94.6456	41.0156	93.1332	41.0156	94.6777	41.0156	93.074	41.0156	94.6732	41.0156	93.0325	41.0156	94.6315	41.0156	93.009	41.0156	94.5549	41.0156	93.0038	41.0156	94.4483	41.0156	93.0168	41.0156	94.3186	41.0156	93.0479	41.0156	94.1737	41.0156	93.0967	41.0156	94.0216	41.0156	93.1627	41.0156	93.8692	41.0156	93.2454	41.0156	93.7219	41.0156	93.3438	41.0156	93.5836	41.0156	93.457
42.4805	95.6048	42.4805	95.4444	42.4805	95.7636	42.4805	95.2872	42.4805	95.9157	42.4805	95.1371	42.4805	96.0548	42.4805	94.9975	42.4805	96.1747	42.4805	94.871	42.4805	96.2689	42.4805	94.7598	42.4805	96.3315	42.4805	94.6655	42.4805	96.3576	42.4805	94.5893	42.4805	96.3443	42.4805	94.5321	42.4805	96.291	42.4805	94.4944	42.4805	96.1998	42.4805	94.4766	42.4805	96.0755	42.4805	94.479	42.4805	95.925	42.4805	94.5016	42.4805	95.7566	42.4805	94.5448	42.4805	95.579	42.4805	94.6086	42.4805	95.4007	42.4805	94.6933	42.4805	95.2285	42.4805	94.7987	42.4805	95.0684	42.4805	94.9242
43.9453	97.3719	43.9453	97.2138	43.9453	97.5265	43.9453	97.0567	43.9453	97.6725	43.9453	96.9047	43.9453	97.8044	43.9453	96.7611	43.9453	97.9164	43.9453	96.629	43.9453	98.0026	43.9453	96.5106	43.9453	98.0579	43.9453	96.4083	43.9453	98.0779	43.9453	96.3238	43.9453	98.0603	43.9453	96.2584	43.9453	98.0047	43.9453	96.2134	43.9453	97.9133	43.9453	96.1895	43.9453	97.7904	43.9453	96.1875	43.9453	97.6424	43.9453	96.2079	43.9453	97.477	43.9453	96.2509	43.9453	97.302	43.9453	96.3165	43.9453	97.1251	43.9453	96.4044	43.9453	96.9528	43.9453	96.5138	43.9453	96.7907	43.9453	96.6433
45.4102	98.8263	45.4102	98.6746	45.4102	98.9743	45.4102	98.5236	45.4102	99.1136	45.4102	98.3773	45.4102	99.2389	45.4102	98.2391	45.4102	99.3446	45.4102	98.1119	45.4102	99.4252	45.4102	97.9983	45.4102	99.4757	45.4102	97.9004	45.4102	99.4925	45.4102	97.8198	45.4102	99.4732	45.4102	97.7579	45.4102	99.4178	45.4102	97.7158	45.4102	99.3286	45.4102	97.6942	45.4102	99.2101	45.4102	97.6936	45.4102	99.0687	45.4102	97.7142	45.4102	98.9116	45.4102	97.7562	45.4102	98.7463	45.4102	97.8193	45.4102	98.5799	45.4102	97.903	45.4102	98.4183	45.4102	98.0064	45.4102	98.2665	45.4102	98.1283
47.6074	100.906	47.6074	100.758	47.6074	101.048	47.6074	100.61	47.6074	101.18	47.6074	100.465	47.6074	101.296	47.6074	100.327	47.6074	101.392	47.6074	100.199	47.6074	101.461	47.6074	100.084	47.6074	101.5	47.6074	99.9841	47.6074	101.505	47.6074	99.9011	47.6074	101.475	47.6074	99.8362	47.6074	101.409	47.6074	99.7906	47.6074	101.312	47.6074	99.7647	47.6074	101.187	47.6074	99.7589	47.6074	101.042	47.6074	99.7732	47.6074	100.884	47.6074	99.8074	47.6074	100.721	47.6074	99.8614	47.6074	100.56	47.6074	99.9348	47.6074	100.406	47.6074	100.027	47.6074	100.264	47.6074	100.137
49.0723	102.143	49.0723	101.997	49.0723	102.283	49.0723	101.85	49.0723	102.412	49.0723	101.706	49.0723	102.526	49.0723	101.568	49.0723	102.619	49.0723	101.44	49.0723	102.687	49.0723	101.323	49.0723	102.725	49.0723	101.221	49.0723	102.729	49.0723	101.135	49.0723	102.697	49.0723	101.067	49.0723	102.632	49.0723	101.018	49.0723	102.534	49.0723	100.988	49.0723	102.409	49.0723	100.978	49.0723	102.263	49.0723	100.988	49.0723	102.103	49.0723	101.018	49.0723	101.938	49.0723	101.069	49.0723	101.774	49.0723	101.14	49.0723	101.617	49.0723	101.232	49.0723	101.472	49.0723	101.343
50.5371	103.246	50.5371	103.102	50.5371	103.385	50.5371	102.957	50.5371	103.514	50.5371	102.815	50.5371	103.628	50.5371	102.68	50.5371	103.721	50.5371	102.555	50.5371	103.79	50.5371	102.443	50.5371	103.829	50.5371	102.346	50.5371	103.836	50.5371	102.265	50.5371	103.809	50.5371	102.203	50.5371	103.748	50.5371	102.159	50.5371	103.657	50.5371	102.136	50.5371	103.54	50.5371	102.132	50.5371	103.403	50.5371	102.148	50.5371	103.253	50.5371	102.184	50.5371	103.096	50.5371	102.24	50.5371	102.939	50.5371	102.315	50.5371	102.788	50.5371	102.409	50.5371	102.648	50.5371	102.52
52.7344	104.661	52.7344	104.517	52.7344	104.799	52.7344	104.372	52.7344	104.927	52.7344	104.23	52.7344	105.038	52.7344	104.094	52.7344	105.129	52.7344	103.969	52.7344	105.194	52.7344	103.858	52.7344	105.23	52.7344	103.761	52.7344	105.234	52.7344	103.683	52.7344	105.205	52.7344	103.623	52.7344	105.144	52.7344	103.582	52.7344	105.055	52.7344	103.562	52.7344	104.941	52.7344	103.562	52.7344	104.808	52.7344	103.581	52.7344	104.664	52.7344	103.621	52.7344	104.513	52.7344	103.679	52.7344	104.363	52.7344	103.755	52.7344	104.218	52.7344	103.849	52.7344	104.082	52.7344	103.958
54.1992	105.491	54.1992	105.346	54.1992	105.629	54.1992	105.2	54.1992	105.755	54.1992	105.055	54.1992	105.864	54.1992	104.918	54.1992	105.953	54.1992	104.79	54.1992	106.015	54.1992	104.675	54.1992	106.048	54.1992	104.576	54.1992	106.049	54.1992	104.495	54.1992	106.017	54.1992	104.433	54.1992	105.954	54.1992	104.391	54.1992	105.862	54.1992	104.369	54.1992	105.747	54.1992	104.369	54.1992	105.615	54.1992	104.389	54.1992	105.471	54.1992	104.428	54.1992	105.321	54.1992	104.487	54.1992	105.172	54.1992	104.564	54.1992	105.028	54.1992	104.659	54.1992	104.893	54.1992	104.769
56.3965	106.654	56.3965	106.51	56.3965	106.791	56.3965	106.363	56.3965	106.916	56.3965	106.218	56.3965	107.023	56.3965	106.079	56.3965	107.108	56.3965	105.949	56.3965	107.167	56.3965	105.831	56.3965	107.196	56.3965	105.729	56.3965	107.193	56.3965	105.643	56.3965	107.157	56.3965	105.577	56.3965	107.091	56.3965	105.53	56.3965	106.996	56.3965	105.504	56.3965	106.877	56.3965	105.499	56.3965	106.741	56.3965	105.515	56.3965	106.594	56.3965	105.551	56.3965	106.442	56.3965	105.606	56.3965	106.29	56.3965	105.681	56.3965	106.144	56.3965	105.774	56.3965	106.007	56.3965	105.883
