"SPL Vertical"																																																																							
"On-Axis"		"10°"		"-10°"		"20°"		"-20°"		"30°"		"-30°"		"40°"		"-40°"		"50°"		"-50°"		"60°"		"-60°"		"70°"		"-70°"		"80°"		"-80°"		"90°"		"-90°"		"100°"		"-100°"		"110°"		"-110°"		"120°"		"-120°"		"130°"		"-130°"		"140°"		"-140°"		"150°"		"-150°"		"160°"		"-160°"		"170°"		"-170°"		"180°"	
"Frequency [Hz]"	"Sound Pessure Level [dB]    /  [	0.2	V at 	1	m]"	"Frequency [Hz]"	"Sound Pessure Level [dB]    /  [	0.2	V at 	1	m]"	"Frequency [Hz]"	"Sound Pessure Level [dB]    /  [	0.2	V at 	1	m]"	"Frequency [Hz]"	"Sound Pessure Level [dB]    /  [	0.2	V at 	1	m]"	"Frequency [Hz]"	"Sound Pessure Level [dB]    /  [	0.2	V at 	1	m]"	"Frequency [Hz]"	"Sound Pessure Level [dB]    /  [	0.2	V at 	1	m]"	"Frequency [Hz]"	"Sound Pessure Level [dB]    /  [	0.2	V at 	1	m]"	"Frequency [Hz]"	"Sound Pessure Level [dB]    /  [	0.2	V at 	1	m]"	"Frequency [Hz]"	"Sound Pessure Level [dB]    /  [	0.2	V at 	1	m]"	"Frequency [Hz]"	"Sound Pessure Level [dB]    /  [	0.2	V at 	1	m]"	"Frequency [Hz]"	"Sound Pessure Level [dB]    /  [	0.2	V at 	1	m]"	"Frequency [Hz]"	"Sound Pessure Level [dB]    /  [	0.2	V at 	1	m]"	"Frequency [Hz]"	"Sound Pessure Level [dB]    /  [	0.2	V at 	1	m]"	"Frequency [Hz]"	"Sound Pessure Level [dB]    /  [	0.2	V at 	1	m]"	"Frequency [Hz]"	"Sound Pessure Level [dB]    /  [	0.2	V at 	1	m]"	"Frequency [Hz]"	"Sound Pessure Level [dB]    /  [	0.2	V at 	1	m]"	"Frequency [Hz]"	"Sound Pessure Level [dB]    /  [	0.2	V at 	1	m]"	"Frequency [Hz]"	"Sound Pessure Level [dB]    /  [	0.2	V at 	1	m]"	"Frequency [Hz]"	"Sound Pessure Level [dB]    /  [	0.2	V at 	1	m]"	"Frequency [Hz]"	"Sound Pessure Level [dB]    /  [	0.2	V at 	1	m]"	"Frequency [Hz]"	"Sound Pessure Level [dB]    /  [	0.2	V at 	1	m]"	"Frequency [Hz]"	"Sound Pessure Level [dB]    /  [	0.2	V at 	1	m]"	"Frequency [Hz]"	"Sound Pessure Level [dB]    /  [	0.2	V at 	1	m]"	"Frequency [Hz]"	"Sound Pessure Level [dB]    /  [	0.2	V at 	1	m]"	"Frequency [Hz]"	"Sound Pessure Level [dB]    /  [	0.2	V at 	1	m]"	"Frequency [Hz]"	"Sound Pessure Level [dB]    /  [	0.2	V at 	1	m]"	"Frequency [Hz]"	"Sound Pessure Level [dB]    /  [	0.2	V at 	1	m]"	"Frequency [Hz]"	"Sound Pessure Level [dB]    /  [	0.2	V at 	1	m]"	"Frequency [Hz]"	"Sound Pessure Level [dB]    /  [	0.2	V at 	1	m]"	"Frequency [Hz]"	"Sound Pessure Level [dB]    /  [	0.2	V at 	1	m]"	"Frequency [Hz]"	"Sound Pessure Level [dB]    /  [	0.2	V at 	1	m]"	"Frequency [Hz]"	"Sound Pessure Level [dB]    /  [	0.2	V at 	1	m]"	"Frequency [Hz]"	"Sound Pessure Level [dB]    /  [	0.2	V at 	1	m]"	"Frequency [Hz]"	"Sound Pessure Level [dB]    /  [	0.2	V at 	1	m]"	"Frequency [Hz]"	"Sound Pessure Level [dB]    /  [	0.2	V at 	1	m]"	"Frequency [Hz]"	"Sound Pessure Level [dB]    /  [	0.2	V at 	1	m]"
20.5078	31.0145	20.5078	31.1666	20.5078	31.0854	20.5078	31.5141	20.5078	31.3597	20.5078	32.0075	20.5078	31.7648	20.5078	32.6003	20.5078	32.1918	20.5078	33.2602	20.5078	32.518	20.5078	33.9688	20.5078	32.6161	20.5078	34.7161	20.5078	32.3507	20.5078	35.4948	20.5078	31.565	20.5078	36.2957	20.5078	30.093	20.5078	37.1058	20.5078	28.0266	20.5078	37.9077	20.5078	27.174	20.5078	38.6796	20.5078	29.8063	20.5078	39.3952	20.5078	33.2727	20.5078	40.0232	20.5078	36.0357	20.5078	40.5263	20.5078	38.0452	20.5078	40.8613	20.5078	39.4391	20.5078	40.9791	20.5078	40.3355	20.5078	40.8246
21.2402	7.49966	21.2402	6.30172	21.2402	10.8681	21.2402	8.93566	21.2402	13.8566	21.2402	12.0769	21.2402	16.2012	21.2402	14.6696	21.2402	17.9915	21.2402	16.802	21.2402	19.2657	21.2402	18.6296	21.2402	19.9829	21.2402	20.2592	21.2402	20.0147	21.2402	21.7566	21.2402	19.0892	21.2402	23.1576	21.2402	16.5469	21.2402	24.4764	21.2402	9.80013	21.2402	25.7114	21.2402	4.90768	21.2402	26.8498	21.2402	17.4675	21.2402	27.8718	21.2402	22.6398	21.2402	28.7533	21.2402	25.7686	21.2402	29.4666	21.2402	27.8084	21.2402	29.9799	21.2402	29.1221	21.2402	30.2559	21.2402	29.8967	21.2402	30.248
21.9727	32.531	21.9727	31.462	21.9727	33.5641	21.9727	30.3606	21.9727	34.5499	21.9727	29.2217	21.9727	35.4691	21.9727	28.0306	21.9727	36.2954	21.9727	26.7612	21.9727	36.9961	21.9727	25.3721	21.9727	37.5334	21.9727	23.8002	21.9727	37.866	21.9727	21.9483	21.9727	37.9503	21.9727	19.6602	21.9727	37.7412	21.9727	16.6766	21.9727	37.1909	21.9727	12.6461	21.9727	36.2476	21.9727	8.74111	21.9727	34.8515	21.9727	10.768	21.9727	32.9282	21.9727	14.3829	21.9727	30.3815	21.9727	16.6703	21.9727	27.0957	21.9727	17.7351	21.9727	23.0434	21.9727	17.7598	21.9727	18.9976	21.9727	17.3944
22.7051	37.5606	22.7051	36.8787	22.7051	38.2601	22.7051	36.2251	22.7051	38.9614	22.7051	35.6081	22.7051	39.6432	22.7051	35.0356	22.7051	40.278	22.7051	34.5181	22.7051	40.8331	22.7051	34.0705	22.7051	41.2731	22.7051	33.7123	22.7051	41.5619	22.7051	33.4662	22.7051	41.6671	22.7051	33.3533	22.7051	41.5638	22.7051	33.3883	22.7051	41.2416	22.7051	33.5733	22.7051	40.7136	22.7051	33.896	22.7051	40.0265	22.7051	34.3303	22.7051	39.2668	22.7051	34.8396	22.7051	38.5468	22.7051	35.3808	22.7051	37.9566	22.7051	35.9095	22.7051	37.5122	22.7051	36.388	22.7051	37.1536	22.7051	36.7977
23.4375	36.0554	23.4375	35.2484	23.4375	36.8672	23.4375	34.4667	23.4375	37.6612	23.4375	33.7298	23.4375	38.4121	23.4375	33.0585	23.4375	39.0914	23.4375	32.4756	23.4375	39.6686	23.4375	32.0058	23.4375	40.1119	23.4375	31.6736	23.4375	40.3907	23.4375	31.4986	23.4375	40.4776	23.4375	31.4907	23.4375	40.3521	23.4375	31.6463	23.4375	40.0052	23.4375	31.9479	23.4375	39.4465	23.4375	32.3659	23.4375	38.7144	23.4375	32.8628	23.4375	37.8854	23.4375	33.396	23.4375	37.0699	23.4375	33.9223	23.4375	36.3783	23.4375	34.4039	23.4375	35.8623	23.4375	34.817	23.4375	35.4864	23.4375	35.1642
24.1699	38.6653	24.1699	38.0884	24.1699	39.2737	24.1699	37.5511	24.1699	39.8996	24.1699	37.0558	24.1699	40.523	24.1699	36.6006	24.1699	41.1183	24.1699	36.1797	24.1699	41.6553	24.1699	35.7847	24.1699	42.1015	24.1699	35.4047	24.1699	42.4235	24.1699	35.0283	24.1699	42.5894	24.1699	34.6442	24.1699	42.5703	24.1699	34.2441	24.1699	42.3421	24.1699	33.8255	24.1699	41.8872	24.1699	33.3975	24.1699	41.1967	24.1699	32.9887	24.1699	40.2743	24.1699	32.6567	24.1699	39.1413	24.1699	32.4916	24.1699	37.8441	24.1699	32.6029	24.1699	36.4626	24.1699	33.0801	24.1699	35.1138	24.1699	33.9415
25.6348	42.0403	25.6348	41.3146	25.6348	42.773	25.6348	40.609	25.6348	43.4963	25.6348	39.9344	25.6348	44.1904	25.6348	39.2999	25.6348	44.8324	25.6348	38.7141	25.6348	45.397	25.6348	38.1853	25.6348	45.8577	25.6348	37.7228	25.6348	46.1884	25.6348	37.3358	25.6348	46.3656	25.6348	37.0345	25.6348	46.3698	25.6348	36.8285	25.6348	46.188	25.6348	36.7276	25.6348	45.8147	25.6348	36.7408	25.6348	45.2545	25.6348	36.8776	25.6348	44.5234	25.6348	37.1475	25.6348	43.6499	25.6348	37.56	25.6348	42.6752	25.6348	38.1219	25.6348	41.6509	25.6348	38.8329	25.6348	40.6343	25.6348	39.68
26.3672	46.2883	26.3672	45.7032	26.3672	46.8994	26.3672	45.1554	26.3672	47.5214	26.3672	44.6524	26.3672	48.1349	26.3672	44.1991	26.3672	48.7165	26.3672	43.7986	26.3672	49.2398	26.3672	43.4527	26.3672	49.6768	26.3672	43.1625	26.3672	49.9997	26.3672	42.9294	26.3672	50.1836	26.3672	42.7546	26.3672	50.2081	26.3672	42.6403	26.3672	50.0602	26.3672	42.59	26.3672	49.7364	26.3672	42.6086	26.3672	49.2444	26.3672	42.7034	26.3672	48.6049	26.3672	42.8839	26.3672	47.852	26.3672	43.1613	26.3672	47.031	26.3672	43.5469	26.3672	46.194	26.3672	44.049	26.3672	45.3924	26.3672	44.6682
27.0996	46.9926	27.0996	46.3884	27.0996	47.6163	27.0996	45.8135	27.0996	48.2459	27.0996	45.2745	27.0996	48.8638	27.0996	44.7756	27.0996	49.4486	27.0996	44.3192	27.0996	49.9755	27.0996	43.9072	27.0996	50.4176	27.0996	43.5409	27.0996	50.7479	27.0996	43.2224	27.0996	50.9406	27.0996	42.9548	27.0996	50.9736	27.0996	42.7432	27.0996	50.8306	27.0996	42.5954	27.0996	50.5027	27.0996	42.5235	27.0996	49.9911	27.0996	42.5441	27.0996	49.3089	27.0996	42.6786	27.0996	48.4828	27.0996	42.9503	27.0996	47.5545	27.0996	43.3798	27.0996	46.5783	27.0996	43.9769	27.0996	45.617	27.0996	44.733
27.832	49.6278	27.832	49.086	27.832	50.195	27.832	48.5802	27.832	50.7732	27.832	48.118	27.832	51.3443	27.832	47.7044	27.832	51.8867	27.832	47.3421	27.832	52.3762	27.832	47.0328	27.832	52.7874	27.832	46.777	27.832	53.095	27.832	46.5752	27.832	53.2761	27.832	46.4278	27.832	53.3121	27.832	46.3361	27.832	53.1906	27.832	46.3022	27.832	52.9075	27.832	46.3297	27.832	52.4687	27.832	46.4244	27.832	51.8914	27.832	46.5945	27.832	51.205	27.832	46.8515	27.832	50.4499	27.832	47.2077	27.832	49.6741	27.832	47.6734	27.832	48.9268	27.832	48.2504
29.2969	52.4338	29.2969	51.9192	29.2969	52.9741	29.2969	51.441	29.2969	53.5266	29.2969	51.0068	29.2969	54.074	29.2969	50.6218	29.2969	54.5962	29.2969	50.2894	29.2969	55.0709	29.2969	50.0116	29.2969	55.4743	29.2969	49.7893	29.2969	55.7835	29.2969	49.6235	29.2969	55.9772	29.2969	49.5147	29.2969	56.0388	29.2969	49.4645	29.2969	55.9572	29.2969	49.4752	29.2969	55.7294	29.2969	49.5504	29.2969	55.3611	29.2969	49.695	29.2969	54.8682	29.2969	49.915	29.2969	54.2763	29.2969	50.2164	29.2969	53.6193	29.2969	50.604	29.2969	52.9357	29.2969	51.0793	29.2969	52.264	29.2969	51.6372
30.0293	54.6001	30.0293	54.0939	30.0293	55.1342	30.0293	53.6251	30.0293	55.6837	30.0293	53.2003	30.0293	56.2324	30.0293	52.8241	30.0293	56.7609	30.0293	52.4991	30.0293	57.2468	30.0293	52.2269	30.0293	57.6658	30.0293	52.0078	30.0293	57.9935	30.0293	51.8422	30.0293	58.2068	30.0293	51.7298	30.0293	58.2862	30.0293	51.6712	30.0293	58.2181	30.0293	51.6678	30.0293	57.9962	30.0293	51.7229	30.0293	57.6235	30.0293	51.8418	30.0293	57.1142	30.0293	52.033	30.0293	56.4938	30.0293	52.3067	30.0293	55.7987	30.0293	52.6739	30.0293	55.073	30.0293	53.1419	30.0293	54.3631	30.0293	53.7097
31.4941	56.709	31.4941	56.2149	31.4941	57.2266	31.4941	55.754	31.4941	57.7545	31.4941	55.3331	31.4941	58.2762	31.4941	54.9566	31.4941	58.7718	31.4941	54.627	31.4941	59.2189	31.4941	54.3456	31.4941	59.5934	31.4941	54.1128	31.4941	59.8716	31.4941	53.9289	31.4941	60.0318	31.4941	53.794	31.4941	60.0566	31.4941	53.709	31.4941	59.9348	31.4941	53.6759	31.4941	59.6635	31.4941	53.6982	31.4941	59.2498	31.4941	53.7816	31.4941	58.7119	31.4941	53.934	31.4941	58.0793	31.4941	54.1653	31.4941	57.3908	31.4941	54.4855	31.4941	56.6904	31.4941	54.9025	31.4941	56.0209	31.4941	55.4174
32.2266	58.9527	32.2266	58.4922	32.2266	59.4352	32.2266	58.0628	32.2266	59.9278	32.2266	57.6709	32.2266	60.415	32.2266	57.3207	32.2266	60.8785	32.2266	57.0149	32.2266	61.2973	32.2266	56.755	32.2266	61.649	32.2266	56.5417	32.2266	61.911	32.2266	56.3755	32.2266	62.0631	32.2266	56.2571	32.2266	62.0889	32.2266	56.1873	32.2266	61.9781	32.2266	56.1681	32.2266	61.7288	32.2266	56.2024	32.2266	61.3484	32.2266	56.2946	32.2266	60.8549	32.2266	56.4506	32.2266	60.2762	32.2266	56.6778	32.2266	59.6482	32.2266	56.9835	32.2266	59.0105	32.2266	57.3736	32.2266	58.4006	32.2266	57.8486
33.6914	61.5352	33.6914	61.0836	33.6914	62.0072	33.6914	60.6614	33.6914	62.4878	33.6914	60.2751	33.6914	62.962	33.6914	59.9292	33.6914	63.4119	33.6914	59.6266	33.6914	63.8168	33.6914	59.3691	33.6914	64.1548	33.6914	59.1578	33.6914	64.4038	33.6914	58.9932	33.6914	64.5437	33.6914	58.8757	33.6914	64.5585	33.6914	58.8057	33.6914	64.4382	33.6914	58.784	33.6914	64.1808	33.6914	58.8124	33.6914	63.7941	33.6914	58.8941	33.6914	63.2964	33.6914	59.0342	33.6914	62.7165	33.6914	59.2401	33.6914	62.0913	33.6914	59.5207	33.6914	61.4617	33.6914	59.8843	33.6914	60.8661	33.6914	60.3345
34.4238	63.1512	34.4238	62.7152	34.4238	63.6071	34.4238	62.3077	34.4238	64.0715	34.4238	61.935	34.4238	64.53	34.4238	61.6018	34.4238	64.9654	34.4238	61.3109	34.4238	65.3579	34.4238	61.0646	34.4238	65.6868	34.4238	60.8643	34.4238	65.9311	34.4238	60.7109	34.4238	66.0722	34.4238	60.6054	34.4238	66.0952	34.4238	60.5486	34.4238	65.9911	34.4238	60.5419	34.4238	65.7587	34.4238	60.5871	34.4238	65.4056	34.4238	60.6871	34.4238	64.949	34.4238	60.846	34.4238	64.4148	34.4238	61.0691	34.4238	63.836	34.4238	61.3624	34.4238	63.2484	34.4238	61.7305	34.4238	62.6854	34.4238	62.1738
35.8887	66.2039	35.8887	65.7973	35.8887	66.6292	35.8887	65.4174	35.8887	67.0622	35.8887	65.0701	35.8887	67.4894	35.8887	64.7598	35.8887	67.8943	35.8887	64.4891	35.8887	68.258	35.8887	64.2601	35.8887	68.5606	35.8887	64.074	35.8887	68.7818	35.8887	63.9315	35.8887	68.9038	35.8887	63.8333	35.8887	68.9124	35.8887	63.78	35.8887	68.7996	35.8887	63.7722	35.8887	68.5652	35.8887	63.8112	35.8887	68.2181	35.8887	63.899	35.8887	67.7766	35.8887	64.0385	35.8887	67.2678	35.8887	64.2343	35.8887	66.7245	35.8887	64.4917	35.8887	66.1813	35.8887	64.816	35.8887	65.6688	35.8887	65.2095
37.3535	68.9653	37.3535	68.5722	37.3535	69.3749	37.3535	68.2034	37.3535	69.7903	37.3535	67.8649	37.3535	70.1983	37.3535	67.561	37.3535	70.583	37.3535	67.2947	37.3535	70.9262	37.3535	67.0682	37.3535	71.2084	37.3535	66.8829	37.3535	71.4104	37.3535	66.7401	37.3535	71.5148	37.3535	66.6403	37.3535	71.5085	37.3535	66.5842	37.3535	71.3841	37.3535	66.5723	37.3535	71.1424	37.3535	66.6055	37.3535	70.7932	37.3535	66.685	37.3535	70.3558	37.3535	66.8131	37.3535	69.8578	37.3535	66.9935	37.3535	69.3323	37.3535	67.2311	37.3535	68.8127	37.3535	67.5313	37.3535	68.3278	37.3535	67.8973
38.8184	71.7264	38.8184	71.353	38.8184	72.1147	38.8184	71.0023	38.8184	72.5081	38.8184	70.68	38.8184	72.8939	38.8184	70.3904	38.8184	73.2571	38.8184	70.1365	38.8184	73.5806	38.8184	69.9206	38.8184	73.8459	38.8184	69.7443	38.8184	74.0348	38.8184	69.6088	38.8184	74.1311	38.8184	69.5147	38.8184	74.1225	38.8184	69.4627	38.8184	74.0024	38.8184	69.4531	38.8184	73.7719	38.8184	69.4865	38.8184	73.4407	38.8184	69.5639	38.8184	73.0274	38.8184	69.6873	38.8184	72.5582	38.8184	69.8598	38.8184	72.064	38.8184	70.0857	38.8184	71.5759	38.8184	70.3698	38.8184	71.1202	38.8184	70.7151
39.5508	72.9539	39.5508	72.5906	39.5508	73.3315	39.5508	72.2494	39.5508	73.7137	39.5508	71.9358	39.5508	74.0881	39.5508	71.6542	39.5508	74.4398	39.5508	71.4075	39.5508	74.752	39.5508	71.198	39.5508	75.0066	39.5508	71.0275	39.5508	75.1856	39.5508	70.8969	39.5508	75.2732	39.5508	70.8071	39.5508	75.2575	39.5508	70.7585	39.5508	75.1327	39.5508	70.7511	39.5508	74.9004	39.5508	70.7852	39.5508	74.5713	39.5508	70.861	39.5508	74.1648	39.5508	70.9797	39.5508	73.7074	39.5508	71.1438	39.5508	73.2301	39.5508	71.357	39.5508	72.7628	39.5508	71.6239	39.5508	72.3303	39.5508	71.9483
41.0156	75.0284	41.0156	74.6763	41.0156	75.3946	41.0156	74.3455	41.0156	75.7654	41.0156	74.0415	41.0156	76.129	41.0156	73.7683	41.0156	76.4713	41.0156	73.5286	41.0156	76.7758	41.0156	73.3246	41.0156	77.0252	41.0156	73.1576	41.0156	77.2022	41.0156	73.0287	41.0156	77.2911	41.0156	72.9384	41.0156	77.2801	41.0156	72.8871	41.0156	77.1629	41.0156	72.875	41.0156	76.9404	41.0156	72.9027	41.0156	76.622	41.0156	72.9709	41.0156	76.2256	41.0156	73.0818	41.0156	75.7766	41.0156	73.2384	41.0156	75.3052	41.0156	73.4455	41.0156	74.8413	41.0156	73.7082	41.0156	74.4105	41.0156	74.0301
42.4805	76.3603	42.4805	76.0127	42.4805	76.7193	42.4805	75.6841	42.4805	77.0805	42.4805	75.3801	42.4805	77.4323	42.4805	75.1049	42.4805	77.7606	42.4805	74.8619	42.4805	78.0498	42.4805	74.6534	42.4805	78.2831	42.4805	74.4814	42.4805	78.444	42.4805	74.3471	42.4805	78.518	42.4805	74.2517	42.4805	78.4943	42.4805	74.196	42.4805	78.368	42.4805	74.1805	42.4805	78.1412	42.4805	74.206	42.4805	77.8242	42.4805	74.2735	42.4805	77.4355	42.4805	74.3844	42.4805	76.9999	42.4805	74.5413	42.4805	76.5458	42.4805	74.7472	42.4805	76.1005	42.4805	75.0058	42.4805	75.6867	42.4805	75.3194
43.9453	77.2814	43.9453	76.9457	43.9453	77.6271	43.9453	76.6272	43.9453	77.9735	43.9453	76.3314	43.9453	78.3094	43.9453	76.0626	43.9453	78.6214	43.9453	75.8243	43.9453	78.8944	43.9453	75.6189	43.9453	79.1123	43.9453	75.4484	43.9453	79.2592	43.9453	75.3143	43.9453	79.3214	43.9453	75.2177	43.9453	79.2889	43.9453	75.1594	43.9453	79.1572	43.9453	75.14	43.9453	78.9292	43.9453	75.1601	43.9453	78.6155	43.9453	75.2206	43.9453	78.2347	43.9453	75.323	43.9453	77.8114	43.9453	75.4692	43.9453	77.3731	43.9453	75.6625	43.9453	76.9461	43.9453	75.9062	43.9453	76.5514	43.9453	76.2027
45.4102	77.808	45.4102	77.4819	45.4102	78.1428	45.4102	77.1716	45.4102	78.4774	45.4102	76.8826	45.4102	78.8009	45.4102	76.6193	45.4102	79.1002	45.4102	76.385	45.4102	79.3606	45.4102	76.1822	45.4102	79.5667	45.4102	76.0131	45.4102	79.7031	45.4102	75.8791	45.4102	79.7566	45.4102	75.7813	45.4102	79.7177	45.4102	75.7206	45.4102	79.5824	45.4102	75.6978	45.4102	79.354	45.4102	75.7133	45.4102	79.0433	45.4102	75.7682	45.4102	78.669	45.4102	75.8635	45.4102	78.2553	45.4102	76.0015	45.4102	77.8292	45.4102	76.185	45.4102	77.416	45.4102	76.4173	45.4102	77.0357	45.4102	76.701
47.6074	77.9805	47.6074	77.6656	47.6074	78.3024	47.6074	77.3646	47.6074	78.6226	47.6074	77.0831	47.6074	78.9304	47.6074	76.8256	47.6074	79.2133	47.6074	76.5955	47.6074	79.4572	47.6074	76.3956	47.6074	79.6472	47.6074	76.2281	47.6074	79.7688	47.6074	76.0946	47.6074	79.8096	47.6074	75.9965	47.6074	79.761	47.6074	75.9345	47.6074	79.6199	47.6074	75.9095	47.6074	79.3903	47.6074	75.9219	47.6074	79.0836	47.6074	75.9722	47.6074	78.7189	47.6074	76.0614	47.6074	78.3199	47.6074	76.191	47.6074	77.9126	47.6074	76.3633	47.6074	77.5206	47.6074	76.5813	47.6074	77.1619	47.6074	76.8474
49.0723	77.9446	49.0723	77.6366	49.0723	78.2587	49.0723	77.3415	49.0723	78.5702	49.0723	77.065	49.0723	78.8687	49.0723	76.8115	49.0723	79.142	49.0723	76.5846	49.0723	79.3763	49.0723	76.3871	49.0723	79.5572	49.0723	76.2211	49.0723	79.6707	49.0723	76.0886	49.0723	79.705	49.0723	75.9907	49.0723	79.6518	49.0723	75.9284	49.0723	79.5086	49.0723	75.9024	49.0723	79.2796	49.0723	75.913	49.0723	78.9767	49.0723	75.9608	49.0723	78.6185	49.0723	76.0463	49.0723	78.2287	49.0723	76.1709	49.0723	77.8325	49.0723	76.3368	49.0723	77.4526	49.0723	76.5466	49.0723	77.106	49.0723	76.8028
50.5371	77.8312	50.5371	77.5272	50.5371	78.1403	50.5371	77.2351	50.5371	78.4459	50.5371	76.9606	50.5371	78.7379	50.5371	76.7082	50.5371	79.0043	50.5371	76.4814	50.5371	79.2317	50.5371	76.2834	50.5371	79.4061	50.5371	76.1164	50.5371	79.514	50.5371	75.9824	50.5371	79.5439	50.5371	75.8829	50.5371	79.488	50.5371	75.819	50.5371	79.344	50.5371	75.7914	50.5371	79.1164	50.5371	75.8007	50.5371	78.817	50.5371	75.8472	50.5371	78.4641	50.5371	75.9317	50.5371	78.0809	50.5371	76.0552	50.5371	77.6918	50.5371	76.2195	50.5371	77.3188	50.5371	76.4269	50.5371	76.9782	50.5371	76.6797
52.7344	77.6748	52.7344	77.3792	52.7344	77.9743	52.7344	77.0943	52.7344	78.2692	52.7344	76.8256	52.7344	78.5496	52.7344	76.5778	52.7344	78.8039	52.7344	76.3546	52.7344	79.0193	52.7344	76.159	52.7344	79.1824	52.7344	75.9938	52.7344	79.2803	52.7344	75.8607	52.7344	79.3022	52.7344	75.7615	52.7344	79.241	52.7344	75.6972	52.7344	79.095	52.7344	75.6687	52.7344	78.8692	52.7344	75.6763	52.7344	78.5753	52.7344	75.7205	52.7344	78.2319	52.7344	75.8015	52.7344	77.8613	52.7344	75.9203	52.7344	77.4871	52.7344	76.0782	52.7344	77.1296	52.7344	76.2771	52.7344	76.8041	52.7344	76.5189
54.1992	77.5687	54.1992	77.277	54.1992	77.8636	54.1992	76.9954	54.1992	78.1534	54.1992	76.7294	54.1992	78.4284	54.1992	76.4837	54.1992	78.6771	54.1992	76.262	54.1992	78.8869	54.1992	76.0676	54.1992	79.0448	54.1992	75.9028	54.1992	79.1382	54.1992	75.7697	54.1992	79.1566	54.1992	75.67	54.1992	79.0933	54.1992	75.6046	54.1992	78.9468	54.1992	75.5745	54.1992	78.722	54.1992	75.58	54.1992	78.4309	54.1992	75.6216	54.1992	78.0915	54.1992	75.6998	54.1992	77.7258	54.1992	75.8154	54.1992	77.3568	54.1992	75.9699	54.1992	77.0046	54.1992	76.1652	54.1992	76.6839	54.1992	76.4031
56.3965	77.4359	56.3965	77.1502	56.3965	77.7239	56.3965	76.8735	56.3965	78.006	56.3965	76.6115	56.3965	78.2727	56.3965	76.369	56.3965	78.5129	56.3965	76.1499	56.3965	78.7145	56.3965	75.9574	56.3965	78.865	56.3965	75.7943	56.3965	78.9525	56.3965	75.6626	56.3965	78.9672	56.3965	75.5641	56.3965	78.9029	56.3965	75.5001	56.3965	78.7584	56.3965	75.4713	56.3965	78.5389	56.3965	75.4783	56.3965	78.2563	56.3965	75.5213	56.3965	77.9279	56.3965	75.6006	56.3965	77.5751	56.3965	75.7167	56.3965	77.2194	56.3965	75.8704	56.3965	76.8795	56.3965	76.0632	56.3965	76.5692	56.3965	76.2961
