"SPL Horizontal"																																																																							
"On-Axis"		"10°"		"-10°"		"20°"		"-20°"		"30°"		"-30°"		"40°"		"-40°"		"50°"		"-50°"		"60°"		"-60°"		"70°"		"-70°"		"80°"		"-80°"		"90°"		"-90°"		"100°"		"-100°"		"110°"		"-110°"		"120°"		"-120°"		"130°"		"-130°"		"140°"		"-140°"		"150°"		"-150°"		"160°"		"-160°"		"170°"		"-170°"		"180°"	
"Frequency [Hz]"	"Sound Pessure Level [dB]    /  [	0.2	V at 	1	m]"	"Frequency [Hz]"	"Sound Pessure Level [dB]    /  [	0.2	V at 	1	m]"	"Frequency [Hz]"	"Sound Pessure Level [dB]    /  [	0.2	V at 	1	m]"	"Frequency [Hz]"	"Sound Pessure Level [dB]    /  [	0.2	V at 	1	m]"	"Frequency [Hz]"	"Sound Pessure Level [dB]    /  [	0.2	V at 	1	m]"	"Frequency [Hz]"	"Sound Pessure Level [dB]    /  [	0.2	V at 	1	m]"	"Frequency [Hz]"	"Sound Pessure Level [dB]    /  [	0.2	V at 	1	m]"	"Frequency [Hz]"	"Sound Pessure Level [dB]    /  [	0.2	V at 	1	m]"	"Frequency [Hz]"	"Sound Pessure Level [dB]    /  [	0.2	V at 	1	m]"	"Frequency [Hz]"	"Sound Pessure Level [dB]    /  [	0.2	V at 	1	m]"	"Frequency [Hz]"	"Sound Pessure Level [dB]    /  [	0.2	V at 	1	m]"	"Frequency [Hz]"	"Sound Pessure Level [dB]    /  [	0.2	V at 	1	m]"	"Frequency [Hz]"	"Sound Pessure Level [dB]    /  [	0.2	V at 	1	m]"	"Frequency [Hz]"	"Sound Pessure Level [dB]    /  [	0.2	V at 	1	m]"	"Frequency [Hz]"	"Sound Pessure Level [dB]    /  [	0.2	V at 	1	m]"	"Frequency [Hz]"	"Sound Pessure Level [dB]    /  [	0.2	V at 	1	m]"	"Frequency [Hz]"	"Sound Pessure Level [dB]    /  [	0.2	V at 	1	m]"	"Frequency [Hz]"	"Sound Pessure Level [dB]    /  [	0.2	V at 	1	m]"	"Frequency [Hz]"	"Sound Pessure Level [dB]    /  [	0.2	V at 	1	m]"	"Frequency [Hz]"	"Sound Pessure Level [dB]    /  [	0.2	V at 	1	m]"	"Frequency [Hz]"	"Sound Pessure Level [dB]    /  [	0.2	V at 	1	m]"	"Frequency [Hz]"	"Sound Pessure Level [dB]    /  [	0.2	V at 	1	m]"	"Frequency [Hz]"	"Sound Pessure Level [dB]    /  [	0.2	V at 	1	m]"	"Frequency [Hz]"	"Sound Pessure Level [dB]    /  [	0.2	V at 	1	m]"	"Frequency [Hz]"	"Sound Pessure Level [dB]    /  [	0.2	V at 	1	m]"	"Frequency [Hz]"	"Sound Pessure Level [dB]    /  [	0.2	V at 	1	m]"	"Frequency [Hz]"	"Sound Pessure Level [dB]    /  [	0.2	V at 	1	m]"	"Frequency [Hz]"	"Sound Pessure Level [dB]    /  [	0.2	V at 	1	m]"	"Frequency [Hz]"	"Sound Pessure Level [dB]    /  [	0.2	V at 	1	m]"	"Frequency [Hz]"	"Sound Pessure Level [dB]    /  [	0.2	V at 	1	m]"	"Frequency [Hz]"	"Sound Pessure Level [dB]    /  [	0.2	V at 	1	m]"	"Frequency [Hz]"	"Sound Pessure Level [dB]    /  [	0.2	V at 	1	m]"	"Frequency [Hz]"	"Sound Pessure Level [dB]    /  [	0.2	V at 	1	m]"	"Frequency [Hz]"	"Sound Pessure Level [dB]    /  [	0.2	V at 	1	m]"	"Frequency [Hz]"	"Sound Pessure Level [dB]    /  [	0.2	V at 	1	m]"	"Frequency [Hz]"	"Sound Pessure Level [dB]    /  [	0.2	V at 	1	m]"
20.5078	31.0145	20.5078	31.9767	20.5078	29.9355	20.5078	32.8539	20.5078	28.6912	20.5078	33.6656	20.5078	27.2143	20.5078	34.4234	20.5078	25.432	20.5078	35.1346	20.5078	23.3732	20.5078	35.8054	20.5078	21.6698	20.5078	36.4422	20.5078	22.0859	20.5078	37.0523	20.5078	24.709	20.5078	37.6425	20.5078	27.7451	20.5078	38.218	20.5078	30.4772	20.5078	38.7795	20.5078	32.8292	20.5078	39.3212	20.5078	34.8351	20.5078	39.8288	20.5078	36.527	20.5078	40.2788	20.5078	37.9252	20.5078	40.6395	20.5078	39.0428	20.5078	40.8746	20.5078	39.8903	20.5078	40.9473	20.5078	40.4791	20.5078	40.8246
21.2402	7.49966	21.2402	15.9996	21.2402	4.55999	21.2402	20.0913	21.2402	15.2758	21.2402	22.7371	21.2402	19.96	21.2402	24.6223	21.2402	22.9678	21.2402	26.005	21.2402	25.1424	21.2402	26.9979	21.2402	26.7925	21.2402	27.6464	21.2402	28.0653	21.2402	27.955	21.2402	29.0479	21.2402	27.8954	21.2402	29.8069	21.2402	27.408	21.2402	30.4031	21.2402	26.4064	21.2402	30.8911	21.2402	24.8256	21.2402	31.3064	21.2402	22.9226	21.2402	31.6508	21.2402	22.1886	21.2402	31.8878	21.2402	23.9858	21.2402	31.9512	21.2402	26.5858	21.2402	31.7595	21.2402	28.729	21.2402	31.2237	21.2402	30.248
21.9727	32.531	21.9727	32.8495	21.9727	32.1551	21.9727	33.1071	21.9727	31.7263	21.9727	33.3001	21.9727	31.2515	21.9727	33.4231	21.9727	30.741	21.9727	33.4679	21.9727	30.2088	21.9727	33.4219	21.9727	29.6713	21.9727	33.267	21.9727	29.1443	21.9727	32.977	21.9727	28.6369	21.9727	32.5149	21.9727	28.1473	21.9727	31.8285	21.9727	27.662	21.9727	30.8448	21.9727	27.1609	21.9727	29.4585	21.9727	26.6235	21.9727	27.5061	21.9727	26.0272	21.9727	24.6936	21.9727	25.3308	21.9727	20.344	21.9727	24.4405	21.9727	11.981	21.9727	23.1629	21.9727	8.37904	21.9727	21.1149	21.9727	17.3944
22.7051	37.5606	22.7051	37.7767	22.7051	37.3229	22.7051	37.9744	22.7051	37.0594	22.7051	38.1554	22.7051	36.7666	22.7051	38.3184	22.7051	36.4429	22.7051	38.4587	22.7051	36.0904	22.7051	38.5683	22.7051	35.7158	22.7051	38.6363	22.7051	35.333	22.7051	38.6502	22.7051	34.9654	22.7051	38.5989	22.7051	34.6496	22.7051	38.4756	22.7051	34.4358	22.7051	38.2831	22.7051	34.3787	22.7051	38.037	22.7051	34.5142	22.7051	37.7671	22.7051	34.8326	22.7051	37.5105	22.7051	35.2739	22.7051	37.2962	22.7051	35.7525	22.7051	37.128	22.7051	36.1914	22.7051	36.9776	22.7051	36.5432	22.7051	36.7977
23.4375	36.0554	23.4375	36.3657	23.4375	35.7125	23.4375	36.6412	23.4375	35.339	23.4375	36.8784	23.4375	34.9384	23.4375	37.0715	23.4375	34.5184	23.4375	37.2129	23.4375	34.0946	23.4375	37.2929	23.4375	33.6931	23.4375	37.3005	23.4375	33.3524	23.4375	37.2251	23.4375	33.1188	23.4375	37.0589	23.4375	33.0348	23.4375	36.8006	23.4375	33.1221	23.4375	36.4618	23.4375	33.368	23.4375	36.073	23.4375	33.7261	23.4375	35.6868	23.4375	34.1316	23.4375	35.3682	23.4375	34.5193	23.4375	35.1702	23.4375	34.8367	23.4375	35.1026	23.4375	35.0516	23.4375	35.1242	23.4375	35.155	23.4375	35.1642
24.1699	38.6653	24.1699	38.7635	24.1699	38.5637	24.1699	38.8592	24.1699	38.4563	24.1699	38.9509	24.1699	38.3389	24.1699	39.0347	24.1699	38.2064	24.1699	39.1038	24.1699	38.053	24.1699	39.1478	24.1699	37.8722	24.1699	39.1528	24.1699	37.6562	24.1699	39.1013	24.1699	37.396	24.1699	38.9728	24.1699	37.0821	24.1699	38.7464	24.1699	36.7052	24.1699	38.4033	24.1699	36.2608	24.1699	37.9312	24.1699	35.7538	24.1699	37.3301	24.1699	35.2049	24.1699	36.6188	24.1699	34.6566	24.1699	35.8413	24.1699	34.1755	24.1699	35.0708	24.1699	33.8464	24.1699	34.4042	24.1699	33.752	24.1699	33.9415
25.6348	42.0403	25.6348	42.0843	25.6348	41.9897	25.6348	42.1207	25.6348	41.9317	25.6348	42.1469	25.6348	41.8645	25.6348	42.1587	25.6348	41.7857	25.6348	42.1498	25.6348	41.6926	25.6348	42.1125	25.6348	41.5833	25.6348	42.0387	25.6348	41.4568	25.6348	41.9203	25.6348	41.3135	25.6348	41.7511	25.6348	41.1553	25.6348	41.5288	25.6348	40.9848	25.6348	41.2568	25.6348	40.8046	25.6348	40.9467	25.6348	40.6165	25.6348	40.6188	25.6348	40.4227	25.6348	40.3011	25.6348	40.2269	25.6348	40.025	25.6348	40.0374	25.6348	39.8191	25.6348	39.8689	25.6348	39.7025	25.6348	39.742	25.6348	39.68
26.3672	46.2883	26.3672	46.2635	26.3672	46.3044	26.3672	46.2299	26.3672	46.3115	26.3672	46.1865	26.3672	46.3079	26.3672	46.1316	26.3672	46.2918	26.3672	46.0636	26.3672	46.2605	26.3672	45.9806	26.3672	46.2118	26.3672	45.8807	26.3672	46.1438	26.3672	45.7627	26.3672	46.0559	26.3672	45.626	26.3672	45.9485	26.3672	45.472	26.3672	45.8231	26.3672	45.3045	26.3672	45.6821	26.3672	45.1313	26.3672	45.5285	26.3672	44.9634	26.3672	45.3661	26.3672	44.8153	26.3672	45.1999	26.3672	44.7021	26.3672	45.0368	26.3672	44.6363	26.3672	44.8859	26.3672	44.625	26.3672	44.7589	26.3672	44.6682
27.0996	46.9926	27.0996	46.9844	27.0996	46.9939	27.0996	46.969	27.0996	46.9877	27.0996	46.9451	27.0996	46.9723	27.0996	46.9103	27.0996	46.9452	27.0996	46.8613	27.0996	46.9032	27.0996	46.7935	27.0996	46.8426	27.0996	46.7018	27.0996	46.7597	27.0996	46.5808	27.0996	46.6509	27.0996	46.426	27.0996	46.5133	27.0996	46.235	27.0996	46.3451	27.0996	46.0094	27.0996	46.1467	27.0996	45.7566	27.0996	45.9212	27.0996	45.4903	27.0996	45.6759	27.0996	45.2309	27.0996	45.4231	27.0996	45.0033	27.0996	45.1805	27.0996	44.8325	27.0996	44.9698	27.0996	44.7388	27.0996	44.814	27.0996	44.733
27.832	49.6278	27.832	49.6209	27.832	49.6284	27.832	49.607	27.832	49.6227	27.832	49.5855	27.832	49.6103	27.832	49.5551	27.832	49.5902	27.832	49.514	27.832	49.5611	27.832	49.4605	27.832	49.521	27.832	49.3924	27.832	49.4677	27.832	49.3076	27.832	49.3989	27.832	49.2049	27.832	49.3126	27.832	49.0843	27.832	49.2079	27.832	48.948	27.832	49.0853	27.832	48.8011	27.832	48.9473	27.832	48.6513	27.832	48.7993	27.832	48.5095	27.832	48.6492	27.832	48.3878	27.832	48.5075	27.832	48.2984	27.832	48.3863	27.832	48.2507	27.832	48.2974	27.832	48.2504
29.2969	52.4338	29.2969	52.4227	29.2969	52.4422	29.2969	52.4087	29.2969	52.4483	29.2969	52.3909	29.2969	52.4517	29.2969	52.3682	29.2969	52.4518	29.2969	52.3392	29.2969	52.4475	29.2969	52.3024	29.2969	52.4372	29.2969	52.2559	29.2969	52.4192	29.2969	52.1983	29.2969	52.3914	29.2969	52.1289	29.2969	52.3519	29.2969	52.0482	29.2969	52.2992	29.2969	51.9587	29.2969	52.2329	29.2969	51.8652	29.2969	52.1533	29.2969	51.775	29.2969	52.0629	29.2969	51.6964	29.2969	51.9655	29.2969	51.6381	29.2969	51.8668	29.2969	51.6069	29.2969	51.7741	29.2969	51.6066	29.2969	51.6951	29.2969	51.6372
30.0293	54.6001	30.0293	54.5844	30.0293	54.6141	30.0293	54.567	30.0293	54.6262	30.0293	54.547	30.0293	54.6356	30.0293	54.5234	30.0293	54.6409	30.0293	54.4945	30.0293	54.6403	30.0293	54.4585	30.0293	54.6316	30.0293	54.4131	30.0293	54.6121	30.0293	54.3567	30.0293	54.5791	30.0293	54.288	30.0293	54.5302	30.0293	54.2072	30.0293	54.4637	30.0293	54.1163	30.0293	54.3795	30.0293	54.0193	30.0293	54.2794	30.0293	53.9223	30.0293	54.1676	30.0293	53.8331	30.0293	54.0509	30.0293	53.7603	30.0293	53.9376	30.0293	53.7117	30.0293	53.8373	30.0293	53.6938	30.0293	53.7589	30.0293	53.7097
31.4941	56.709	31.4941	56.6838	31.4941	56.7254	31.4941	56.6493	31.4941	56.7327	31.4941	56.6053	31.4941	56.7305	31.4941	56.551	31.4941	56.718	31.4941	56.4858	31.4941	56.6937	31.4941	56.4089	31.4941	56.6561	31.4941	56.3202	31.4941	56.6034	31.4941	56.2196	31.4941	56.5338	31.4941	56.1083	31.4941	56.4462	31.4941	55.9887	31.4941	56.3406	31.4941	55.8648	31.4941	56.2187	31.4941	55.7423	31.4941	56.0843	31.4941	55.6281	31.4941	55.9433	31.4941	55.5299	31.4941	55.8032	31.4941	55.4547	31.4941	55.6726	31.4941	55.4086	31.4941	55.5602	31.4941	55.3956	31.4941	55.4733	31.4941	55.4174
32.2266	58.9527	32.2266	58.9407	32.2266	58.958	32.2266	58.9218	32.2266	58.9564	32.2266	58.8958	32.2266	58.9476	32.2266	58.8621	32.2266	58.931	32.2266	58.8203	32.2266	58.9057	32.2266	58.7694	32.2266	58.8705	32.2266	58.7084	32.2266	58.8237	32.2266	58.6365	32.2266	58.7641	32.2266	58.5531	32.2266	58.6903	32.2266	58.4584	32.2266	58.6021	32.2266	58.3543	32.2266	58.5006	32.2266	58.2443	32.2266	58.3883	32.2266	58.134	32.2266	58.2701	32.2266	58.031	32.2266	58.1524	32.2266	57.9437	32.2266	58.0432	32.2266	57.8803	32.2266	57.9512	32.2266	57.8474	32.2266	57.8843	32.2266	57.8486
33.6914	61.5352	33.6914	61.516	33.6914	61.5451	33.6914	61.4876	33.6914	61.5456	33.6914	61.4499	33.6914	61.5362	33.6914	61.4026	33.6914	61.5162	33.6914	61.3455	33.6914	61.4846	33.6914	61.2784	33.6914	61.4405	33.6914	61.2011	33.6914	61.3828	33.6914	61.1138	33.6914	61.3108	33.6914	61.0172	33.6914	61.2244	33.6914	60.9127	33.6914	61.1242	33.6914	60.8028	33.6914	61.0123	33.6914	60.6916	33.6914	60.8921	33.6914	60.5843	33.6914	60.7683	33.6914	60.4875	33.6914	60.6474	33.6914	60.4082	33.6914	60.5365	33.6914	60.3531	33.6914	60.443	33.6914	60.3276	33.6914	60.3739	33.6914	60.3345
34.4238	63.1512	34.4238	63.1331	34.4238	63.1611	34.4238	63.1069	34.4238	63.1626	34.4238	63.0725	34.4238	63.1553	34.4238	63.0297	34.4238	63.1386	34.4238	62.9784	34.4238	63.112	34.4238	62.9185	34.4238	63.0746	34.4238	62.85	34.4238	63.026	34.4238	62.7734	34.4238	62.966	34.4238	62.6897	34.4238	62.8946	34.4238	62.6009	34.4238	62.8129	34.4238	62.5097	34.4238	62.7225	34.4238	62.42	34.4238	62.6263	34.4238	62.3366	34.4238	62.5279	34.4238	62.2645	34.4238	62.432	34.4238	62.2086	34.4238	62.3437	34.4238	62.1733	34.4238	62.2682	34.4238	62.1613	34.4238	62.2103	34.4238	62.1738
35.8887	66.2039	35.8887	66.1908	35.8887	66.2095	35.8887	66.1703	35.8887	66.2075	35.8887	66.1421	35.8887	66.1975	35.8887	66.106	35.8887	66.1789	35.8887	66.0617	35.8887	66.151	35.8887	66.0089	35.8887	66.1132	35.8887	65.9472	35.8887	66.0644	35.8887	65.8765	35.8887	66.0042	35.8887	65.7972	35.8887	65.9324	35.8887	65.7104	35.8887	65.8495	35.8887	65.6182	35.8887	65.7572	35.8887	65.5241	35.8887	65.6583	35.8887	65.4326	35.8887	65.5568	35.8887	65.3494	35.8887	65.4581	35.8887	65.2805	35.8887	65.3682	35.8887	65.2316	35.8887	65.2933	35.8887	65.2071	35.8887	65.239	35.8887	65.2095
37.3535	68.9653	37.3535	68.9494	37.3535	68.9719	37.3535	68.9241	37.3535	68.969	37.3535	68.8895	37.3535	68.9564	37.3535	68.8452	37.3535	68.9337	37.3535	68.7914	37.3535	68.9006	37.3535	68.728	37.3535	68.8564	37.3535	68.6553	37.3535	68.8009	37.3535	68.5738	37.3535	68.7339	37.3535	68.4846	37.3535	68.6554	37.3535	68.3895	37.3535	68.5666	37.3535	68.2913	37.3535	68.469	37.3535	68.1937	37.3535	68.3658	37.3535	68.1014	37.3535	68.2607	37.3535	68.0199	37.3535	68.159	37.3535	67.9544	37.3535	68.0663	37.3535	67.91	37.3535	67.9885	37.3535	67.8903	37.3535	67.9308	37.3535	67.8973
38.8184	71.7264	38.8184	71.7134	38.8184	71.7305	38.8184	71.6914	38.8184	71.7256	38.8184	71.6605	38.8184	71.7116	38.8184	71.6205	38.8184	71.6883	38.8184	71.5715	38.8184	71.6553	38.8184	71.5133	38.8184	71.6124	38.8184	71.4462	38.8184	71.5593	38.8184	71.3707	38.8184	71.4959	38.8184	71.2875	38.8184	71.4224	38.8184	71.1982	38.8184	71.3395	38.8184	71.1051	38.8184	71.2488	38.8184	71.0117	38.8184	71.1526	38.8184	70.9224	38.8184	71.0545	38.8184	70.8425	38.8184	70.9593	38.8184	70.7773	38.8184	70.8723	38.8184	70.732	38.8184	70.7992	38.8184	70.7106	38.8184	70.7454	38.8184	70.7151
39.5508	72.9539	39.5508	72.9423	39.5508	72.9563	39.5508	72.9215	39.5508	72.9494	39.5508	72.8917	39.5508	72.9331	39.5508	72.8529	39.5508	72.9072	39.5508	72.8052	39.5508	72.8713	39.5508	72.7487	39.5508	72.8252	39.5508	72.6837	39.5508	72.7689	39.5508	72.6108	39.5508	72.7022	39.5508	72.5307	39.5508	72.6257	39.5508	72.4449	39.5508	72.5404	39.5508	72.3552	39.5508	72.4481	39.5508	72.2646	39.5508	72.3518	39.5508	72.177	39.5508	72.2552	39.5508	72.0969	39.5508	72.1634	39.5508	72.0295	39.5508	72.0817	39.5508	71.9797	39.5508	72.0157	39.5508	71.9518	39.5508	71.9701	39.5508	71.9483
41.0156	75.0284	41.0156	75.0212	41.0156	75.0267	41.0156	75.005	41.0156	75.0161	41.0156	74.9798	41.0156	74.9965	41.0156	74.9452	41.0156	74.9677	41.0156	74.9009	41.0156	74.9294	41.0156	74.8467	41.0156	74.8816	41.0156	74.7824	41.0156	74.8242	41.0156	74.708	41.0156	74.7576	41.0156	74.6243	41.0156	74.6825	41.0156	74.5329	41.0156	74.6002	41.0156	74.4364	41.0156	74.5125	41.0156	74.339	41.0156	74.4221	41.0156	74.2459	41.0156	74.332	41.0156	74.163	41.0156	74.2461	41.0156	74.0961	41.0156	74.1686	41.0156	74.0499	41.0156	74.1039	41.0156	74.0275	41.0156	74.0564	41.0156	74.0301
42.4805	76.3603	42.4805	76.3483	42.4805	76.3621	42.4805	76.3263	42.4805	76.3538	42.4805	76.2943	42.4805	76.3353	42.4805	76.2523	42.4805	76.3063	42.4805	76.2004	42.4805	76.2669	42.4805	76.1387	42.4805	76.217	42.4805	76.0678	42.4805	76.1566	42.4805	75.9884	42.4805	76.0863	42.4805	75.9017	42.4805	76.0066	42.4805	75.8096	42.4805	75.9189	42.4805	75.7148	42.4805	75.8251	42.4805	75.6206	42.4805	75.7282	42.4805	75.5315	42.4805	75.6317	42.4805	75.4522	42.4805	75.5403	42.4805	75.3875	42.4805	75.4587	42.4805	75.3418	42.4805	75.392	42.4805	75.3185	42.4805	75.3444	42.4805	75.3194
43.9453	77.2814	43.9453	77.2697	43.9453	77.2826	43.9453	77.2473	43.9453	77.273	43.9453	77.2144	43.9453	77.2525	43.9453	77.171	43.9453	77.2212	43.9453	77.1172	43.9453	77.179	43.9453	77.0533	43.9453	77.1259	43.9453	76.9798	43.9453	77.0621	43.9453	76.8975	43.9453	76.9883	43.9453	76.8075	43.9453	76.9053	43.9453	76.7119	43.9453	76.8145	43.9453	76.6134	43.9453	76.7181	43.9453	76.5157	43.9453	76.6188	43.9453	76.4232	43.9453	76.5205	43.9453	76.3408	43.9453	76.4274	43.9453	76.2737	43.9453	76.3444	43.9453	76.2263	43.9453	76.2765	43.9453	76.202	43.9453	76.2281	43.9453	76.2027
45.4102	77.808	45.4102	77.7982	45.4102	77.8067	45.4102	77.7774	45.4102	77.7943	45.4102	77.7456	45.4102	77.7707	45.4102	77.703	45.4102	77.7359	45.4102	77.6496	45.4102	77.6898	45.4102	77.5857	45.4102	77.6326	45.4102	77.5118	45.4102	77.5646	45.4102	77.4288	45.4102	77.4864	45.4102	77.3378	45.4102	77.3992	45.4102	77.2409	45.4102	77.3045	45.4102	77.1407	45.4102	77.2048	45.4102	77.0408	45.4102	77.1031	45.4102	76.9455	45.4102	77.0036	45.4102	76.8596	45.4102	76.9107	45.4102	76.7881	45.4102	76.8296	45.4102	76.7357	45.4102	76.765	45.4102	76.706	45.4102	76.7211	45.4102	76.701
47.6074	77.9805	47.6074	77.9676	47.6074	77.9817	47.6074	77.943	47.6074	77.9711	47.6074	77.9069	47.6074	77.9486	47.6074	77.8595	47.6074	77.9142	47.6074	77.8011	47.6074	77.8679	47.6074	77.7322	47.6074	77.8099	47.6074	77.6535	47.6074	77.7405	47.6074	77.5662	47.6074	77.6606	47.6074	77.4718	47.6074	77.5712	47.6074	77.3725	47.6074	77.4741	47.6074	77.2712	47.6074	77.3717	47.6074	77.1714	47.6074	77.2673	47.6074	77.0773	47.6074	77.1649	47.6074	76.9936	47.6074	77.0692	47.6074	76.925	47.6074	76.9851	47.6074	76.8757	47.6074	76.9175	47.6074	76.8492	47.6074	76.8706	47.6074	76.8474
49.0723	77.9446	49.0723	77.93	49.0723	77.9472	49.0723	77.9035	49.0723	77.9376	49.0723	77.8653	49.0723	77.9157	49.0723	77.8156	49.0723	77.8816	49.0723	77.7549	49.0723	77.8354	49.0723	77.6837	49.0723	77.7772	49.0723	77.6029	49.0723	77.7075	49.0723	77.5137	49.0723	77.6271	49.0723	77.4178	49.0723	77.5372	49.0723	77.3175	49.0723	77.4396	49.0723	77.2156	49.0723	77.3367	49.0723	77.1158	49.0723	77.2317	49.0723	77.0224	49.0723	77.1286	49.0723	76.94	49.0723	77.0319	49.0723	76.8732	49.0723	76.9466	49.0723	76.8262	49.0723	76.8773	49.0723	76.8021	49.0723	76.8284	49.0723	76.8028
50.5371	77.8312	50.5371	77.816	50.5371	77.834	50.5371	77.7885	50.5371	77.8242	50.5371	77.7489	50.5371	77.8018	50.5371	77.6976	50.5371	77.7669	50.5371	77.6349	50.5371	77.7195	50.5371	77.5617	50.5371	77.6599	50.5371	77.4788	50.5371	77.5887	50.5371	77.3877	50.5371	77.5067	50.5371	77.2902	50.5371	77.4154	50.5371	77.1887	50.5371	77.3164	50.5371	77.0864	50.5371	77.2126	50.5371	76.9868	50.5371	77.107	50.5371	76.8942	50.5371	77.0037	50.5371	76.8129	50.5371	76.9073	50.5371	76.7475	50.5371	76.8225	50.5371	76.7018	50.5371	76.7538	50.5371	76.6786	50.5371	76.7053	50.5371	76.6797
52.7344	77.6748	52.7344	77.6595	52.7344	77.6774	52.7344	77.6315	52.7344	77.667	52.7344	77.5912	52.7344	77.6437	52.7344	77.5388	52.7344	77.6075	52.7344	77.4751	52.7344	77.5586	52.7344	77.4006	52.7344	77.4975	52.7344	77.3166	52.7344	77.4248	52.7344	77.2246	52.7344	77.3414	52.7344	77.1264	52.7344	77.2488	52.7344	77.0247	52.7344	77.149	52.7344	76.9225	52.7344	77.0447	52.7344	76.8235	52.7344	76.9392	52.7344	76.7316	52.7344	76.8365	52.7344	76.6513	52.7344	76.7411	52.7344	76.5867	52.7344	76.6576	52.7344	76.5415	52.7344	76.5905	52.7344	76.5183	52.7344	76.5434	52.7344	76.5189
54.1992	77.5687	54.1992	77.5524	54.1992	77.5721	54.1992	77.5233	54.1992	77.5624	54.1992	77.4818	54.1992	77.5396	54.1992	77.4282	54.1992	77.5039	54.1992	77.3631	54.1992	77.4555	54.1992	77.2873	54.1992	77.3947	54.1992	77.202	54.1992	77.3222	54.1992	77.1087	54.1992	77.239	54.1992	77.0094	54.1992	77.1465	54.1992	76.9067	54.1992	77.0467	54.1992	76.8035	54.1992	76.9421	54.1992	76.7037	54.1992	76.836	54.1992	76.6113	54.1992	76.7323	54.1992	76.5307	54.1992	76.6352	54.1992	76.4664	54.1992	76.5496	54.1992	76.422	54.1992	76.4799	54.1992	76.4004	54.1992	76.4301	54.1992	76.4031
56.3965	77.4359	56.3965	77.4184	56.3965	77.4403	56.3965	77.3879	56.3965	77.4315	56.3965	77.345	56.3965	77.4093	56.3965	77.2901	56.3965	77.3738	56.3965	77.2239	56.3965	77.3253	56.3965	77.1474	56.3965	77.2641	56.3965	77.062	56.3965	77.191	56.3965	76.9695	56.3965	77.1071	56.3965	76.8719	56.3965	77.0139	56.3965	76.772	56.3965	76.9138	56.3965	76.6729	56.3965	76.8096	56.3965	76.578	56.3965	76.7049	56.3965	76.4912	56.3965	76.6038	56.3965	76.4162	56.3965	76.5106	56.3965	76.3565	56.3965	76.4298	56.3965	76.3152	56.3965	76.3651	56.3965	76.2946	56.3965	76.3199	56.3965	76.2961
