"SPL Horizontal"																																																																							
"On-Axis"		"10°"		"-10°"		"20°"		"-20°"		"30°"		"-30°"		"40°"		"-40°"		"50°"		"-50°"		"60°"		"-60°"		"70°"		"-70°"		"80°"		"-80°"		"90°"		"-90°"		"100°"		"-100°"		"110°"		"-110°"		"120°"		"-120°"		"130°"		"-130°"		"140°"		"-140°"		"150°"		"-150°"		"160°"		"-160°"		"170°"		"-170°"		"180°"	
"Frequency [Hz]"	"Sound Pessure Level [dB]  / [2.83V 1m] "	"Frequency [Hz]"	"Sound Pessure Level [dB]  / [2.83V 1m] "	"Frequency [Hz]"	"Sound Pessure Level [dB]  / [2.83V 1m] "	"Frequency [Hz]"	"Sound Pessure Level [dB]  / [2.83V 1m] "	"Frequency [Hz]"	"Sound Pessure Level [dB]  / [2.83V 1m] "	"Frequency [Hz]"	"Sound Pessure Level [dB]  / [2.83V 1m] "	"Frequency [Hz]"	"Sound Pessure Level [dB]  / [2.83V 1m] "	"Frequency [Hz]"	"Sound Pessure Level [dB]  / [2.83V 1m] "	"Frequency [Hz]"	"Sound Pessure Level [dB]  / [2.83V 1m] "	"Frequency [Hz]"	"Sound Pessure Level [dB]  / [2.83V 1m] "	"Frequency [Hz]"	"Sound Pessure Level [dB]  / [2.83V 1m] "	"Frequency [Hz]"	"Sound Pessure Level [dB]  / [2.83V 1m] "	"Frequency [Hz]"	"Sound Pessure Level [dB]  / [2.83V 1m] "	"Frequency [Hz]"	"Sound Pessure Level [dB]  / [2.83V 1m] "	"Frequency [Hz]"	"Sound Pessure Level [dB]  / [2.83V 1m] "	"Frequency [Hz]"	"Sound Pessure Level [dB]  / [2.83V 1m] "	"Frequency [Hz]"	"Sound Pessure Level [dB]  / [2.83V 1m] "	"Frequency [Hz]"	"Sound Pessure Level [dB]  / [2.83V 1m] "	"Frequency [Hz]"	"Sound Pessure Level [dB]  / [2.83V 1m] "	"Frequency [Hz]"	"Sound Pessure Level [dB]  / [2.83V 1m] "	"Frequency [Hz]"	"Sound Pessure Level [dB]  / [2.83V 1m] "	"Frequency [Hz]"	"Sound Pessure Level [dB]  / [2.83V 1m] "	"Frequency [Hz]"	"Sound Pessure Level [dB]  / [2.83V 1m] "	"Frequency [Hz]"	"Sound Pessure Level [dB]  / [2.83V 1m] "	"Frequency [Hz]"	"Sound Pessure Level [dB]  / [2.83V 1m] "	"Frequency [Hz]"	"Sound Pessure Level [dB]  / [2.83V 1m] "	"Frequency [Hz]"	"Sound Pessure Level [dB]  / [2.83V 1m] "	"Frequency [Hz]"	"Sound Pessure Level [dB]  / [2.83V 1m] "	"Frequency [Hz]"	"Sound Pessure Level [dB]  / [2.83V 1m] "	"Frequency [Hz]"	"Sound Pessure Level [dB]  / [2.83V 1m] "	"Frequency [Hz]"	"Sound Pessure Level [dB]  / [2.83V 1m] "	"Frequency [Hz]"	"Sound Pessure Level [dB]  / [2.83V 1m] "	"Frequency [Hz]"	"Sound Pessure Level [dB]  / [2.83V 1m] "	"Frequency [Hz]"	"Sound Pessure Level [dB]  / [2.83V 1m] "	"Frequency [Hz]"	"Sound Pessure Level [dB]  / [2.83V 1m] "	"Frequency [Hz]"	"Sound Pessure Level [dB]  / [2.83V 1m] "
20.5078	50.7704	20.5078	50.947	20.5078	50.6185	20.5078	51.1656	20.5078	50.4977	20.5078	51.4605	20.5078	50.4432	20.5078	51.8724	20.5078	50.5187	20.5078	52.4343	20.5078	50.8038	20.5078	53.1572	20.5078	51.3618	20.5078	54.0238	20.5078	52.202	20.5078	54.9941	20.5078	53.2701	20.5078	56.0175	20.5078	54.4747	20.5078	57.0448	20.5078	55.723	20.5078	58.0336	20.5078	56.9404	20.5078	58.9494	20.5078	58.0735	20.5078	59.7644	20.5078	59.0851	20.5078	60.4558	20.5078	59.9492	20.5078	61.0046	20.5078	60.6478	20.5078	61.3949	20.5078	61.1686	20.5078	61.6139	20.5078	61.5043	20.5078	61.6522
21.9727	53.1893	21.9727	53.255	21.9727	53.1148	21.9727	53.3186	21.9727	53.0401	21.9727	53.4016	21.9727	52.9902	21.9727	53.5381	21.9727	53.0059	21.9727	53.7696	21.9727	53.1391	21.9727	54.1351	21.9727	53.44	21.9727	54.6567	21.9727	53.9383	21.9727	55.3295	21.9727	54.6277	21.9727	56.1209	21.9727	55.4668	21.9727	56.9812	21.9727	56.3942	21.9727	57.8563	21.9727	57.3459	21.9727	58.6973	21.9727	58.2661	21.9727	59.4638	21.9727	59.1109	21.9727	60.1241	21.9727	59.847	21.9727	60.6541	21.9727	60.4498	21.9727	61.0359	21.9727	60.9016	21.9727	61.2569	21.9727	61.1903	21.9727	61.3094
23.4375	53.9429	23.4375	53.9874	23.4375	53.8945	23.4375	54.0405	23.4375	53.849	23.4375	54.1325	23.4375	53.8336	23.4375	54.3083	23.4375	53.8945	23.4375	54.6172	23.4375	54.0899	23.4375	55.0969	23.4375	54.4736	23.4375	55.7566	23.4375	55.0713	23.4375	56.5709	23.4375	55.8662	23.4375	57.4888	23.4375	56.8045	23.4375	58.4509	23.4375	57.8165	23.4375	59.4016	23.4375	58.8357	23.4375	60.2958	23.4375	59.8082	23.4375	61.0983	23.4375	60.693	23.4375	61.7823	23.4375	61.4601	23.4375	62.3269	23.4375	62.087	23.4375	62.7162	23.4375	62.5573	23.4375	62.9388	23.4375	62.8597	23.4375	62.9875
24.9023	55.3509	24.9023	55.3961	24.9023	55.3207	24.9023	55.4682	24.9023	55.3111	24.9023	55.5944	24.9023	55.3446	24.9023	55.8124	24.9023	55.4587	24.9023	56.1609	24.9023	55.699	24.9023	56.666	24.9023	56.1044	24.9023	57.329	24.9023	56.6919	24.9023	58.1242	24.9023	57.4458	24.9023	59.0063	24.9023	58.3231	24.9023	59.9238	24.9023	59.2673	24.9023	60.8283	24.9023	60.2221	24.9023	61.6787	24.9023	61.1394	24.9023	62.4422	24.9023	61.9808	24.9023	63.0924	24.9023	62.7163	24.9023	63.6087	24.9023	63.3228	24.9023	63.9751	24.9023	63.7827	24.9023	64.18	24.9023	64.0833	24.9023	64.2167
26.3672	58.1856	26.3672	58.2135	26.3672	58.1677	26.3672	58.2607	26.3672	58.1624	26.3672	58.3469	26.3672	58.1841	26.3672	58.5	26.3672	58.2578	26.3672	58.7504	26.3672	58.416	26.3672	59.1232	26.3672	58.6916	26.3672	59.6284	26.3672	59.1077	26.3672	60.2559	26.3672	59.6677	26.3672	60.977	26.3672	60.352	26.3672	61.7516	26.3672	61.1229	26.3672	62.5361	26.3672	61.9338	26.3672	63.2899	26.3672	62.7383	26.3672	63.9773	26.3672	63.495	26.3672	64.5691	26.3672	64.1696	26.3672	65.0416	26.3672	64.7344	26.3672	65.3767	26.3672	65.1684	26.3672	65.5615	26.3672	65.4564	26.3672	65.5887
27.832	60.1513	27.832	60.1902	27.832	60.1241	27.832	60.247	27.832	60.1121	27.832	60.3368	27.832	60.1286	27.832	60.4816	27.832	60.1956	27.832	60.7067	27.832	60.3413	27.832	61.0341	27.832	60.594	27.832	61.4755	27.832	60.9736	27.832	62.0273	27.832	61.484	27.832	62.6694	27.832	62.1095	27.832	63.3692	27.832	62.8179	27.832	64.0886	27.832	63.5678	27.832	64.7889	27.832	64.3163	27.832	65.435	27.832	65.024	27.832	65.9966	27.832	65.6572	27.832	66.4489	27.832	66.1884	27.832	66.7727	27.832	66.5963	27.832	66.9543	27.832	66.8653	27.832	66.9859
29.2969	62.0513	29.2969	62.0783	29.2969	62.0362	29.2969	62.1226	29.2969	62.0361	29.2969	62.197	29.2969	62.0621	29.2969	62.3204	29.2969	62.1324	29.2969	62.5151	29.2969	62.2704	29.2969	62.8013	29.2969	62.4996	29.2969	63.1915	29.2969	62.8378	29.2969	63.6852	29.2969	63.2903	29.2969	64.2669	29.2969	63.8468	29.2969	64.909	29.2969	64.482	29.2969	65.5768	29.2969	65.1614	29.2969	66.2335	29.2969	65.8465	29.2969	66.8444	29.2969	66.5003	29.2969	67.3791	29.2969	67.0898	29.2969	67.8123	29.2969	67.5872	29.2969	68.1242	29.2969	67.9703	29.2969	68.301	29.2969	68.2228	29.2969	68.3344
30.7617	64.0567	30.7617	64.0728	30.7617	64.05	30.7617	64.1026	30.7617	64.0547	30.7617	64.1569	30.7617	64.0789	30.7617	64.2511	30.7617	64.1369	30.7617	64.4038	30.7617	64.247	30.7617	64.6332	30.7617	64.429	30.7617	64.952	30.7617	64.6993	30.7617	65.3633	30.7617	65.0665	30.7617	65.8579	30.7617	65.527	30.7617	66.415	30.7617	66.0644	30.7617	67.0051	30.7617	66.6516	30.7617	67.5949	30.7617	67.2557	30.7617	68.1512	30.7617	67.8421	30.7617	68.6432	30.7617	68.3784	30.7617	69.0449	30.7617	68.8359	30.7617	69.3357	30.7617	69.1913	30.7617	69.5007	30.7617	69.427	30.7617	69.5318
32.2266	65.5883	32.2266	65.6049	32.2266	65.5837	32.2266	65.6374	32.2266	65.5931	32.2266	65.6946	32.2266	65.6237	32.2266	65.7896	32.2266	65.6876	32.2266	65.9384	32.2266	65.8003	32.2266	66.1562	32.2266	65.9786	32.2266	66.4544	32.2266	66.2363	32.2266	66.8362	32.2266	66.5807	32.2266	67.2944	32.2266	67.0091	32.2266	67.8113	32.2266	67.5076	32.2266	68.3613	32.2266	68.0531	32.2266	68.914	32.2266	68.616	32.2266	69.4381	32.2266	69.1648	32.2266	69.9042	32.2266	69.6685	32.2266	70.2866	32.2266	70.0997	32.2266	70.5648	32.2266	70.4352	32.2266	70.7238	32.2266	70.6575	32.2266	70.7553
33.6914	67.321	33.6914	67.3359	33.6914	67.3188	33.6914	67.3664	33.6914	67.3308	33.6914	67.4198	33.6914	67.363	33.6914	67.507	33.6914	67.4254	33.6914	67.6411	33.6914	67.5307	33.6914	67.8354	33.6914	67.6925	33.6914	68.1001	33.6914	67.9229	33.6914	68.4389	33.6914	68.2285	33.6914	68.8472	33.6914	68.6083	33.6914	69.3112	33.6914	69.0522	33.6914	69.809	33.6914	69.5413	33.6914	70.3137	33.6914	70.0505	33.6914	70.7963	33.6914	70.5512	33.6914	71.2286	33.6914	71.0146	33.6914	71.5854	33.6914	71.414	33.6914	71.8461	33.6914	71.7265	33.6914	71.9957	33.6914	71.9343	33.6914	72.0257
35.1562	68.9307	35.1562	68.9427	35.1562	68.9327	35.1562	68.9714	35.1562	68.9498	35.1562	69.0228	35.1562	68.9866	35.1562	69.106	35.1562	69.0511	35.1562	69.2318	35.1562	69.1535	35.1562	69.4109	35.1562	69.3049	35.1562	69.6518	35.1562	69.5155	35.1562	69.9583	35.1562	69.7914	35.1562	70.3269	35.1562	70.1327	35.1562	70.7466	35.1562	70.5317	35.1562	71.199	35.1562	70.9731	35.1562	71.6604	35.1562	71.4353	35.1562	72.1046	35.1562	71.8927	35.1562	72.505	35.1562	72.3185	35.1562	72.8375	35.1562	72.6872	35.1562	73.0819	35.1562	72.9765	35.1562	73.2232	35.1562	73.1689	35.1562	73.2528
36.6211	70.3899	36.6211	70.4024	36.6211	70.391	36.6211	70.4308	36.6211	70.4065	36.6211	70.4799	36.6211	70.4405	36.6211	70.5575	36.6211	70.4994	36.6211	70.6725	36.6211	70.5918	36.6211	70.8344	36.6211	70.7273	36.6211	71.0507	36.6211	70.9145	36.6211	71.3253	36.6211	71.1593	36.6211	71.6562	36.6211	71.4626	36.6211	72.0344	36.6211	71.8189	36.6211	72.4446	36.6211	72.216	36.6211	72.8656	36.6211	72.6353	36.6211	73.2731	36.6211	73.0542	36.6211	73.6422	36.6211	73.4477	36.6211	73.9494	36.6211	73.7914	36.6211	74.175	36.6211	74.0636	36.6211	74.3041	36.6211	74.2466	36.6211	74.3285
38.0859	71.7313	38.0859	71.7476	38.0859	71.7309	38.0859	71.7814	38.0859	71.747	38.0859	71.837	38.0859	71.783	38.0859	71.9203	38.0859	71.8441	38.0859	72.0385	38.0859	71.9373	38.0859	72.1989	38.0859	72.0702	38.0859	72.4076	38.0859	72.2498	38.0859	72.6672	38.0859	72.4808	38.0859	72.9759	38.0859	72.7639	38.0859	73.326	38.0859	73.0946	38.0859	73.7039	38.0859	73.4621	38.0859	74.0915	38.0859	73.8504	38.0859	74.4668	38.0859	74.2392	38.0859	74.807	38.0859	74.6059	38.0859	75.0904	38.0859	74.9276	38.0859	75.2981	38.0859	75.1836	38.0859	75.4161	38.0859	75.357	38.0859	75.4362
39.5508	73.0005	39.5508	73.0149	39.5508	73.0031	39.5508	73.0476	39.5508	73.0231	39.5508	73.1019	39.5508	73.063	39.5508	73.1826	39.5508	73.1271	39.5508	73.2954	39.5508	73.2207	39.5508	73.446	39.5508	73.3499	39.5508	73.6393	39.5508	73.52	39.5508	73.8775	39.5508	73.7349	39.5508	74.1591	39.5508	73.995	39.5508	74.4779	39.5508	74.2967	39.5508	74.8225	39.5508	74.6311	39.5508	75.177	39.5508	74.9843	39.5508	75.522	39.5508	75.3386	39.5508	75.8367	39.5508	75.6734	39.5508	76.1005	39.5508	75.9676	39.5508	76.2955	39.5508	76.2016	39.5508	76.408	39.5508	76.3594	39.5508	76.4298
41.0156	74.2172	41.0156	74.2326	41.0156	74.2198	41.0156	74.267	41.0156	74.2409	41.0156	74.3229	41.0156	74.2825	41.0156	74.4036	41.0156	74.3477	41.0156	74.5136	41.0156	74.4407	41.0156	74.6571	41.0156	74.566	41.0156	74.8377	41.0156	74.7277	41.0156	75.0571	41.0156	74.9285	41.0156	75.3142	41.0156	75.1688	41.0156	75.6038	41.0156	75.4452	41.0156	75.9165	41.0156	75.7503	41.0156	76.2387	41.0156	76.0722	41.0156	76.5534	41.0156	76.3951	41.0156	76.8417	41.0156	76.7007	41.0156	77.0846	41.0156	76.9697	41.0156	77.2651	41.0156	77.1838	41.0156	77.37	41.0156	77.3279	41.0156	77.3915
42.4805	74.9413	42.4805	74.9485	42.4805	74.9491	42.4805	74.9717	42.4805	74.9721	42.4805	75.0133	42.4805	75.0118	42.4805	75.0764	42.4805	75.0708	42.4805	75.165	42.4805	75.1527	42.4805	75.2833	42.4805	75.2615	42.4805	75.4349	42.4805	75.4011	42.4805	75.6219	42.4805	75.5744	42.4805	75.844	42.4805	75.7822	42.4805	76.0974	42.4805	76.0225	42.4805	76.3745	42.4805	76.2894	42.4805	76.6636	42.4805	76.5726	42.4805	76.9492	42.4805	76.8584	42.4805	77.214	42.4805	77.1301	42.4805	77.4399	42.4805	77.3696	42.4805	77.6105	42.4805	77.5598	42.4805	77.7127	42.4805	77.6861	42.4805	77.7385
43.9453	75.3212	43.9453	75.3359	43.9453	75.3235	43.9453	75.3682	43.9453	75.3432	43.9453	75.4198	43.9453	75.3813	43.9453	75.4928	43.9453	75.4399	43.9453	75.59	43.9453	75.5216	43.9453	75.7144	43.9453	75.6293	43.9453	75.8681	43.9453	75.7657	43.9453	76.0523	43.9453	75.9327	43.9453	76.2662	43.9453	76.1305	43.9453	76.506	43.9453	76.357	43.9453	76.7647	43.9453	76.6071	43.9453	77.0318	43.9453	76.872	43.9453	77.2936	43.9453	77.1398	43.9453	77.5344	43.9453	77.3956	43.9453	77.7377	43.9453	77.6233	43.9453	77.8886	43.9453	77.8069	43.9453	77.975	43.9453	77.9325	43.9453	77.9901
45.4102	75.8483	45.4102	75.8648	45.4102	75.8483	45.4102	75.8981	45.4102	75.865	45.4102	75.9493	45.4102	75.8996	45.4102	76.0201	45.4102	75.9536	45.4102	76.1125	45.4102	76.0292	45.4102	76.2286	45.4102	76.1286	45.4102	76.3704	45.4102	76.2542	45.4102	76.5387	45.4102	76.4073	45.4102	76.7329	45.4102	76.5882	45.4102	76.9499	45.4102	76.7951	45.4102	77.184	45.4102	77.0234	45.4102	77.4259	45.4102	77.2657	45.4102	77.6636	45.4102	77.5112	45.4102	77.8828	45.4102	77.7464	45.4102	78.0684	45.4102	77.9566	45.4102	78.2061	45.4102	78.1266	45.4102	78.2848	45.4102	78.2435	45.4102	78.2977
46.875	76.2087	46.875	76.2265	46.875	76.2083	46.875	76.2617	46.875	76.2254	46.875	76.3152	46.875	76.2608	46.875	76.3882	46.875	76.3158	46.875	76.4819	46.875	76.3919	46.875	76.5979	46.875	76.4909	46.875	76.7373	46.875	76.6142	46.875	76.9005	46.875	76.7629	46.875	77.0865	46.875	76.9368	46.875	77.2924	46.875	77.1339	46.875	77.5127	46.875	77.3503	46.875	77.7393	46.875	77.5788	46.875	77.9613	46.875	77.8098	46.875	78.1657	46.875	78.031	46.875	78.3384	46.875	78.2286	46.875	78.4665	46.875	78.3887	46.875	78.5394	46.875	78.499	46.875	78.5506
48.3398	76.5314	48.3398	76.5494	48.3398	76.5314	48.3398	76.5855	48.3398	76.5496	48.3398	76.6399	48.3398	76.5866	48.3398	76.7134	48.3398	76.6432	48.3398	76.8066	48.3398	76.7201	48.3398	76.9202	48.3398	76.8185	48.3398	77.0547	48.3398	76.9392	48.3398	77.21	48.3398	77.0824	48.3398	77.3848	48.3398	77.2477	48.3398	77.5766	48.3398	77.4329	48.3398	77.7806	48.3398	77.6344	48.3398	77.9895	48.3398	77.8459	48.3398	78.1938	48.3398	78.0589	48.3398	78.3819	48.3398	78.2623	48.3398	78.5412	48.3398	78.4438	48.3398	78.6596	48.3398	78.5907	48.3398	78.7274	48.3398	78.6916	48.3398	78.7385
51.2695	77.0291	51.2695	77.0452	51.2695	77.0316	51.2695	77.0797	51.2695	77.0529	51.2695	77.1325	51.2695	77.0928	51.2695	77.2032	51.2695	77.1514	51.2695	77.2918	51.2695	77.2287	51.2695	77.3977	51.2695	77.3243	51.2695	77.5206	51.2695	77.4381	51.2695	77.6595	51.2695	77.5694	51.2695	77.8131	51.2695	77.717	51.2695	77.979	51.2695	77.879	51.2695	78.1534	51.2695	78.0521	51.2695	78.331	51.2695	78.2316	51.2695	78.5043	51.2695	78.4106	51.2695	78.664	51.2695	78.5807	51.2695	78.7999	51.2695	78.7317	51.2695	78.9018	51.2695	78.8534	51.2695	78.9614	51.2695	78.9362	51.2695	78.9732
52.7344	77.2392	52.7344	77.2543	52.7344	77.2432	52.7344	77.2883	52.7344	77.2662	52.7344	77.3407	52.7344	77.3081	52.7344	77.4112	52.7344	77.3685	52.7344	77.4991	52.7344	77.4469	52.7344	77.6035	52.7344	77.5425	52.7344	77.7235	52.7344	77.6546	52.7344	77.8579	52.7344	77.782	52.7344	78.0051	52.7344	77.9234	52.7344	78.1625	52.7344	78.0766	52.7344	78.3267	52.7344	78.2386	52.7344	78.4927	52.7344	78.4052	52.7344	78.6537	52.7344	78.5704	52.7344	78.8015	52.7344	78.7266	52.7344	78.9269	52.7344	78.8652	52.7344	79.0208	52.7344	78.9766	52.7344	79.0755	52.7344	79.0525	52.7344	79.0864
54.1992	77.4731	54.1992	77.4897	54.1992	77.4757	54.1992	77.525	54.1992	77.4972	54.1992	77.5785	54.1992	77.5375	54.1992	77.6493	54.1992	77.5957	54.1992	77.7362	54.1992	77.6711	54.1992	77.838	54.1992	77.7624	54.1992	77.9531	54.1992	77.8686	54.1992	78.0801	54.1992	77.988	54.1992	78.2168	54.1992	78.1191	54.1992	78.361	54.1992	78.2598	54.1992	78.5094	54.1992	78.4074	54.1992	78.6577	54.1992	78.5581	54.1992	78.8004	54.1992	78.707	54.1992	78.9304	54.1992	78.8477	54.1992	79.04	54.1992	78.9726	54.1992	79.1213	54.1992	79.0735	54.1992	79.1678	54.1992	79.1429	54.1992	79.1753
55.6641	77.6265	55.6641	77.6452	55.6641	77.6263	55.6641	77.6822	55.6641	77.6447	55.6641	77.7364	55.6641	77.6813	55.6641	77.8068	55.6641	77.7353	55.6641	77.8919	55.6641	77.8056	55.6641	77.9899	55.6641	77.8908	55.6641	78.0992	55.6641	77.9896	55.6641	78.2179	55.6641	78.1003	55.6641	78.3439	55.6641	78.2211	55.6641	78.4749	55.6641	78.35	55.6641	78.6082	55.6641	78.4845	55.6641	78.7401	55.6641	78.6215	55.6641	78.8659	55.6641	78.7565	55.6641	78.9797	55.6641	78.8842	55.6641	79.0749	55.6641	78.9979	55.6641	79.1446	55.6641	79.0905	55.6641	79.1832	55.6641	79.1552	55.6641	79.1869
58.5938	78.0856	58.5938	78.1002	58.5938	78.088	58.5938	78.1311	58.5938	78.1072	58.5938	78.1775	58.5938	78.1428	58.5938	78.238	58.5938	78.1936	58.5938	78.3107	58.5938	78.2583	58.5938	78.3939	58.5938	78.3353	58.5938	78.4856	58.5938	78.4225	58.5938	78.5837	58.5938	78.5182	58.5938	78.6866	58.5938	78.6204	58.5938	78.7922	58.5938	78.7272	58.5938	78.8985	58.5938	78.8363	58.5938	79.0032	58.5938	78.9452	58.5938	79.103	58.5938	79.0509	58.5938	79.1939	58.5938	79.1492	58.5938	79.2709	58.5938	79.2354	58.5938	79.3289	58.5938	79.3041	58.5938	79.3632	58.5938	79.3505	58.5938	79.3707
60.0586	78.15	60.0586	78.1611	60.0586	78.1558	60.0586	78.1887	60.0586	78.1783	60.0586	78.2316	60.0586	78.2168	60.0586	78.2884	60.0586	78.2699	60.0586	78.3573	60.0586	78.3358	60.0586	78.436	60.0586	78.4127	60.0586	78.5225	60.0586	78.4982	60.0586	78.6144	60.0586	78.59	60.0586	78.7099	60.0586	78.6861	60.0586	78.8071	60.0586	78.7843	60.0586	78.904	60.0586	78.8825	60.0586	78.9986	60.0586	78.9786	60.0586	79.0884	60.0586	79.0701	60.0586	79.17	60.0586	79.1538	60.0586	79.2394	60.0586	79.226	60.0586	79.2923	60.0586	79.2827	60.0586	79.3248	60.0586	79.3198	60.0586	79.3342
62.9883	78.5206	62.9883	78.5349	62.9883	78.5228	62.9883	78.5652	62.9883	78.5414	62.9883	78.6102	62.9883	78.5754	62.9883	78.6682	62.9883	78.6235	62.9883	78.7368	62.9883	78.6836	62.9883	78.8135	62.9883	78.7534	62.9883	78.8956	62.9883	78.8304	62.9883	78.9804	62.9883	78.912	62.9883	79.0655	62.9883	78.9961	62.9883	79.1491	62.9883	79.0805	62.9883	79.2293	62.9883	79.1633	62.9883	79.3046	62.9883	79.2432	62.9883	79.3736	62.9883	79.3183	62.9883	79.4341	62.9883	79.3867	62.9883	79.4837	62.9883	79.4461	62.9883	79.5199	62.9883	79.4937	62.9883	79.54	62.9883	79.5265	62.9883	79.5423
64.4531	78.6413	64.4531	78.6552	64.4531	78.6441	64.4531	78.6854	64.4531	78.6635	64.4531	78.7303	64.4531	78.6986	64.4531	78.7882	64.4531	78.7477	64.4531	78.8564	64.4531	78.8086	64.4531	78.9323	64.4531	78.8789	64.4531	79.0129	64.4531	78.9558	64.4531	79.0955	64.4531	79.0365	64.4531	79.1774	64.4531	79.1185	64.4531	79.2568	64.4531	79.1996	64.4531	79.3318	64.4531	79.2778	64.4531	79.4012	64.4531	79.3517	64.4531	79.4638	64.4531	79.4199	64.4531	79.5182	64.4531	79.481	64.4531	79.5625	64.4531	79.5332	64.4531	79.5948	64.4531	79.5745	64.4531	79.6129	64.4531	79.6025	64.4531	79.6156
67.3828	78.9088	67.3828	78.9217	67.3828	78.9127	67.3828	78.9507	67.3828	78.9329	67.3828	78.9943	67.3828	78.9686	67.3828	79.0506	67.3828	79.0179	67.3828	79.1166	67.3828	79.0784	67.3828	79.1894	67.3828	79.1473	67.3828	79.2658	67.3828	79.2215	67.3828	79.3425	67.3828	79.298	67.3828	79.4168	67.3828	79.3737	67.3828	79.4864	67.3828	79.4463	67.3828	79.5497	67.3828	79.5137	67.3828	79.6058	67.3828	79.5746	67.3828	79.6542	67.3828	79.6281	67.3828	79.6944	67.3828	79.6736	67.3828	79.7263	67.3828	79.7106	67.3828	79.7491	67.3828	79.7386	67.3828	79.7621	67.3828	79.7569	67.3828	79.7648
68.8477	79.081	68.8477	79.0931	68.8477	79.0853	68.8477	79.121	68.8477	79.1058	68.8477	79.1633	68.8477	79.1413	68.8477	79.2178	68.8477	79.1901	68.8477	79.2819	68.8477	79.2497	68.8477	79.3521	68.8477	79.317	68.8477	79.4254	68.8477	79.389	68.8477	79.4982	68.8477	79.4624	68.8477	79.5679	68.8477	79.5342	68.8477	79.6321	68.8477	79.6018	68.8477	79.6892	68.8477	79.6633	68.8477	79.7385	68.8477	79.7174	68.8477	79.7799	68.8477	79.7634	68.8477	79.8134	68.8477	79.8012	68.8477	79.8393	68.8477	79.831	68.8477	79.8578	68.8477	79.8526	68.8477	79.8686	68.8477	79.8661	68.8477	79.8715
