"SPL Horizontal"																																																																							
"On-Axis"		"10°"		"-10°"		"20°"		"-20°"		"30°"		"-30°"		"40°"		"-40°"		"50°"		"-50°"		"60°"		"-60°"		"70°"		"-70°"		"80°"		"-80°"		"90°"		"-90°"		"100°"		"-100°"		"110°"		"-110°"		"120°"		"-120°"		"130°"		"-130°"		"140°"		"-140°"		"150°"		"-150°"		"160°"		"-160°"		"170°"		"-170°"		"180°"	
"Frequency [Hz]"	"Sound Pessure Level [dB]  / [2.83V 1m] "	"Frequency [Hz]"	"Sound Pessure Level [dB]  / [2.83V 1m] "	"Frequency [Hz]"	"Sound Pessure Level [dB]  / [2.83V 1m] "	"Frequency [Hz]"	"Sound Pessure Level [dB]  / [2.83V 1m] "	"Frequency [Hz]"	"Sound Pessure Level [dB]  / [2.83V 1m] "	"Frequency [Hz]"	"Sound Pessure Level [dB]  / [2.83V 1m] "	"Frequency [Hz]"	"Sound Pessure Level [dB]  / [2.83V 1m] "	"Frequency [Hz]"	"Sound Pessure Level [dB]  / [2.83V 1m] "	"Frequency [Hz]"	"Sound Pessure Level [dB]  / [2.83V 1m] "	"Frequency [Hz]"	"Sound Pessure Level [dB]  / [2.83V 1m] "	"Frequency [Hz]"	"Sound Pessure Level [dB]  / [2.83V 1m] "	"Frequency [Hz]"	"Sound Pessure Level [dB]  / [2.83V 1m] "	"Frequency [Hz]"	"Sound Pessure Level [dB]  / [2.83V 1m] "	"Frequency [Hz]"	"Sound Pessure Level [dB]  / [2.83V 1m] "	"Frequency [Hz]"	"Sound Pessure Level [dB]  / [2.83V 1m] "	"Frequency [Hz]"	"Sound Pessure Level [dB]  / [2.83V 1m] "	"Frequency [Hz]"	"Sound Pessure Level [dB]  / [2.83V 1m] "	"Frequency [Hz]"	"Sound Pessure Level [dB]  / [2.83V 1m] "	"Frequency [Hz]"	"Sound Pessure Level [dB]  / [2.83V 1m] "	"Frequency [Hz]"	"Sound Pessure Level [dB]  / [2.83V 1m] "	"Frequency [Hz]"	"Sound Pessure Level [dB]  / [2.83V 1m] "	"Frequency [Hz]"	"Sound Pessure Level [dB]  / [2.83V 1m] "	"Frequency [Hz]"	"Sound Pessure Level [dB]  / [2.83V 1m] "	"Frequency [Hz]"	"Sound Pessure Level [dB]  / [2.83V 1m] "	"Frequency [Hz]"	"Sound Pessure Level [dB]  / [2.83V 1m] "	"Frequency [Hz]"	"Sound Pessure Level [dB]  / [2.83V 1m] "	"Frequency [Hz]"	"Sound Pessure Level [dB]  / [2.83V 1m] "	"Frequency [Hz]"	"Sound Pessure Level [dB]  / [2.83V 1m] "	"Frequency [Hz]"	"Sound Pessure Level [dB]  / [2.83V 1m] "	"Frequency [Hz]"	"Sound Pessure Level [dB]  / [2.83V 1m] "	"Frequency [Hz]"	"Sound Pessure Level [dB]  / [2.83V 1m] "	"Frequency [Hz]"	"Sound Pessure Level [dB]  / [2.83V 1m] "	"Frequency [Hz]"	"Sound Pessure Level [dB]  / [2.83V 1m] "	"Frequency [Hz]"	"Sound Pessure Level [dB]  / [2.83V 1m] "	"Frequency [Hz]"	"Sound Pessure Level [dB]  / [2.83V 1m] "	"Frequency [Hz]"	"Sound Pessure Level [dB]  / [2.83V 1m] "
20.5078	56.7749	20.5078	56.5931	20.5078	56.7528	20.5078	56.2013	20.5078	56.5249	20.5078	55.5875	20.5078	56.0807	20.5078	54.7411	20.5078	55.402	20.5078	53.6762	20.5078	54.4683	20.5078	52.4999	20.5078	53.2793	20.5078	51.5598	20.5078	51.9317	20.5078	51.4797	20.5078	50.8175	20.5078	52.5499	20.5078	50.7242	20.5078	54.2766	20.5078	51.9932	20.5078	56.0784	20.5078	53.9386	20.5078	57.6856	20.5078	55.8847	20.5078	59.0207	20.5078	57.5756	20.5078	60.0739	20.5078	58.9588	20.5078	60.8528	20.5078	60.0399	20.5078	61.3661	20.5078	60.8349	20.5078	61.6203	20.5078	61.3578	20.5078	61.6179
23.4375	59.8313	23.4375	59.6992	23.4375	59.8085	23.4375	59.4202	23.4375	59.6295	23.4375	59.016	23.4375	59.3002	23.4375	58.5359	23.4375	58.841	23.4375	58.0818	23.4375	58.3042	23.4375	57.8257	23.4375	57.8029	23.4375	57.9704	23.4375	57.5335	23.4375	58.618	23.4375	57.7232	23.4375	59.6745	23.4375	58.4652	23.4375	60.9325	23.4375	59.6236	23.4375	62.2071	23.4375	60.9589	23.4375	63.3843	23.4375	62.2797	23.4375	64.4048	23.4375	63.4776	23.4375	65.2407	23.4375	64.5008	23.4375	65.8784	23.4375	65.3265	23.4375	66.3114	23.4375	65.9454	23.4375	66.5362	23.4375	66.3539	23.4375	66.5507
26.3672	63.6236	26.3672	63.5781	26.3672	63.5882	26.3672	63.4635	26.3672	63.4731	26.3672	63.3067	26.3672	63.2928	26.3672	63.1549	26.3672	63.0797	26.3672	63.0778	26.3672	62.89	26.3672	63.1602	26.3672	62.8064	26.3672	63.4749	26.3672	62.9241	26.3672	64.0463	26.3672	63.3139	26.3672	64.8331	26.3672	63.9805	26.3672	65.7496	26.3672	64.8567	26.3672	66.7028	26.3672	65.8393	26.3672	67.6163	26.3672	66.8307	26.3672	68.4361	26.3672	67.758	26.3672	69.1268	26.3672	68.5728	26.3672	69.6657	26.3672	69.245	26.3672	70.0385	26.3672	69.756	26.3672	70.2368	26.3672	70.095	26.3672	70.256
29.2969	67.7995	29.2969	67.7999	29.2969	67.7913	29.2969	67.801	29.2969	67.7765	29.2969	67.8202	29.2969	67.7654	29.2969	67.8832	29.2969	67.778	29.2969	68.0205	29.2969	67.8422	29.2969	68.2612	29.2969	67.99	29.2969	68.6241	29.2969	68.2507	29.2969	69.11	29.2969	68.6406	29.2969	69.6991	29.2969	69.1561	29.2969	70.3558	29.2969	69.7724	29.2969	71.0373	29.2969	70.4498	29.2969	71.701	29.2969	71.1431	29.2969	72.3096	29.2969	71.809	29.2969	72.8332	29.2969	72.411	29.2969	73.2488	29.2969	72.9203	29.2969	73.5397	29.2969	73.3155	29.2969	73.6952	29.2969	73.5815	29.2969	73.7094
32.2266	71.3055	32.2266	71.3283	32.2266	71.2994	32.2266	71.3718	32.2266	71.3109	32.2266	71.444	32.2266	71.3453	32.2266	71.5562	32.2266	71.4121	32.2266	71.7212	32.2266	71.5238	32.2266	71.9503	32.2266	71.6942	32.2266	72.2507	32.2266	71.9345	32.2266	72.6221	32.2266	72.2512	32.2266	73.0555	32.2266	72.6418	32.2266	73.5333	32.2266	73.0947	32.2266	74.0318	32.2266	73.5896	32.2266	74.5244	32.2266	74.1004	32.2266	74.9842	32.2266	74.5988	32.2266	75.3865	32.2266	75.0573	32.2266	75.7105	32.2266	75.4516	32.2266	75.9398	32.2266	75.7616	32.2266	76.0632	32.2266	75.9725	32.2266	76.0744
35.1563	73.9524	35.1563	73.9773	35.1563	73.9511	35.1563	74.0274	35.1563	73.9737	35.1563	74.1064	35.1563	74.0227	35.1563	74.219	35.1563	74.1022	35.1563	74.3708	35.1563	74.2178	35.1563	74.5662	35.1563	74.3751	35.1563	74.8082	35.1563	74.5789	35.1563	75.0959	35.1563	74.8313	35.1563	75.4241	35.1563	75.1309	35.1563	75.7829	35.1563	75.471	35.1563	76.1576	35.1563	75.8401	35.1563	76.5308	35.1563	76.2222	35.1563	76.8828	35.1563	76.5982	35.1563	77.1946	35.1563	76.9481	35.1563	77.4484	35.1563	77.2523	35.1563	77.6299	35.1563	77.4937	35.1563	77.7286	35.1563	77.6588	35.1563	77.7385
38.0859	75.8158	38.0859	75.8374	38.0859	75.8184	38.0859	75.8839	38.0859	75.8454	38.0859	75.9569	38.0859	75.8979	38.0859	76.0581	38.0859	75.9774	38.0859	76.1897	38.0859	76.0861	38.0859	76.3535	38.0859	76.2261	38.0859	76.5501	38.0859	76.399	38.0859	76.7784	38.0859	76.6051	38.0859	77.0349	38.0859	76.8427	38.0859	77.313	38.0859	77.1073	38.0859	77.6031	38.0859	77.3914	38.0859	77.8929	38.0859	77.6844	38.0859	78.1681	38.0859	77.9731	38.0859	78.4139	38.0859	78.2427	38.0859	78.616	38.0859	78.4781	38.0859	78.7621	38.0859	78.6654	38.0859	78.843	38.0859	78.7933	38.0859	78.8537
41.0156	77.213	41.0156	77.2331	41.0156	77.2153	41.0156	77.276	41.0156	77.24	41.0156	77.3419	41.0156	77.2872	41.0156	77.4315	41.0156	77.3573	41.0156	77.5452	41.0156	77.4506	41.0156	77.6829	41.0156	77.5675	41.0156	77.8443	41.0156	77.7081	41.0156	78.0278	41.0156	77.872	41.0156	78.2304	41.0156	78.0575	41.0156	78.4473	41.0156	78.2618	41.0156	78.6719	41.0156	78.4799	41.0156	78.8952	41.0156	78.7048	41.0156	79.1068	41.0156	78.9272	41.0156	79.2955	41.0156	79.1366	41.0156	79.4501	41.0156	79.3213	41.0156	79.5609	41.0156	79.4701	41.0156	79.6206	41.0156	79.5737	41.0156	79.625
43.9453	78.2838	43.9453	78.3054	43.9453	78.2831	43.9453	78.3479	43.9453	78.3034	43.9453	78.4109	43.9453	78.3446	43.9453	78.494	43.9453	78.4064	43.9453	78.5966	43.9453	78.4884	43.9453	78.7177	43.9453	78.5902	43.9453	78.8561	43.9453	78.711	43.9453	79.01	43.9453	78.8497	43.9453	79.1767	43.9453	79.0045	43.9453	79.3526	43.9453	79.1729	43.9453	79.5326	43.9453	79.351	43.9453	79.7103	43.9453	79.5335	43.9453	79.8779	43.9453	79.7135	43.9453	80.0268	43.9453	79.8829	43.9453	80.1485	43.9453	80.0327	43.9453	80.2353	43.9453	80.154	43.9453	80.281	43.9453	80.2391	43.9453	80.2824
46.875	79.286	46.875	79.3059	46.875	79.2856	46.875	79.3447	46.875	79.3045	46.875	79.402	46.875	79.3424	46.875	79.4765	46.875	79.3986	46.875	79.5672	46.875	79.4723	46.875	79.6725	46.875	79.5622	46.875	79.7907	46.875	79.667	46.875	79.9198	46.875	79.7852	46.875	80.0574	46.875	79.9148	46.875	80.2006	46.875	80.0536	46.875	80.3454	46.875	80.1983	46.875	80.4871	46.875	80.3451	46.875	80.6201	46.875	80.4888	46.875	80.738	46.875	80.6234	46.875	80.8342	46.875	80.7421	46.875	80.9027	46.875	80.8382	46.875	80.9388	46.875	80.9056	46.875	80.9399
49.8047	80.219	49.8047	80.2335	49.8047	80.2228	49.8047	80.266	49.8047	80.2448	49.8047	80.3158	49.8047	80.2843	49.8047	80.3816	49.8047	80.3402	49.8047	80.4621	49.8047	80.4112	49.8047	80.5553	49.8047	80.4956	49.8047	80.6594	49.8047	80.5915	49.8047	80.7721	49.8047	80.6969	49.8047	80.8911	49.8047	80.8098	49.8047	81.0134	49.8047	80.9278	49.8047	81.136	49.8047	81.0483	49.8047	81.2548	49.8047	81.1682	49.8047	81.3656	49.8047	81.2837	49.8047	81.4634	49.8047	81.3906	49.8047	81.5433	49.8047	81.4838	49.8047	81.6006	49.8047	81.5584	49.8047	81.6319	49.8047	81.6099	49.8047	81.635
52.7344	81.211	52.7344	81.2281	52.7344	81.2097	52.7344	81.2605	52.7344	81.2241	52.7344	81.3073	52.7344	81.2538	52.7344	81.3671	52.7344	81.2976	52.7344	81.438	52.7344	81.3541	52.7344	81.5182	52.7344	81.4217	52.7344	81.6054	52.7344	81.4985	52.7344	81.6974	52.7344	81.5823	52.7344	81.7918	52.7344	81.6714	52.7344	81.8863	52.7344	81.7635	52.7344	81.9784	52.7344	81.8568	52.7344	82.0655	52.7344	81.949	52.7344	82.1445	52.7344	82.0374	52.7344	82.2124	52.7344	82.1194	52.7344	82.266	52.7344	82.1914	52.7344	82.3025	52.7344	82.2503	52.7344	82.3197	52.7344	82.2928	52.7344	82.3164
55.6641	82.062	55.6641	82.0766	55.6641	82.0613	55.6641	82.1046	55.6641	82.0745	55.6641	82.145	55.6641	82.101	55.6641	82.1965	55.6641	82.1396	55.6641	82.2571	55.6641	82.1889	55.6641	82.3248	55.6641	82.2471	55.6641	82.3975	55.6641	82.3122	55.6641	82.473	55.6641	82.3822	55.6641	82.5491	55.6641	82.4551	55.6641	82.6238	55.6641	82.529	55.6641	82.6952	55.6641	82.6024	55.6641	82.7614	55.6641	82.6734	55.6641	82.8206	55.6641	82.7404	55.6641	82.8708	55.6641	82.8016	55.6641	82.9101	55.6641	82.8549	55.6641	82.9366	55.6641	82.8981	55.6641	82.949	55.6641	82.9292	55.6641	82.9464
58.5938	82.854	58.5938	82.8656	58.5938	82.8548	58.5938	82.8892	58.5938	82.8681	58.5938	82.9239	58.5938	82.893	58.5938	82.9681	58.5938	82.9285	58.5938	83.0202	58.5938	82.973	58.5938	83.078	58.5938	83.0246	58.5938	83.1394	58.5938	83.0814	58.5938	83.2022	58.5938	83.1411	58.5938	83.2644	58.5938	83.2019	58.5938	83.3243	58.5938	83.262	58.5938	83.3803	58.5938	83.3199	58.5938	83.4311	58.5938	83.3743	58.5938	83.4755	58.5938	83.4242	58.5938	83.5126	58.5938	83.4685	58.5938	83.5412	58.5938	83.5062	58.5938	83.5606	58.5938	83.5362	58.5938	83.5699	58.5938	83.5574	58.5938	83.5688
61.5234	83.5326	61.5234	83.5422	61.5234	83.5341	61.5234	83.5625	61.5234	83.5467	61.5234	83.5925	61.5234	83.5697	61.5234	83.631	61.5234	83.602	61.5234	83.676	61.5234	83.6419	61.5234	83.7256	61.5234	83.6875	61.5234	83.7775	61.5234	83.7369	61.5234	83.8298	61.5234	83.7878	61.5234	83.8804	61.5234	83.8384	61.5234	83.9277	61.5234	83.8868	61.5234	83.9707	61.5234	83.9319	61.5234	84.0083	61.5234	83.9726	61.5234	84.04	61.5234	84.0085	61.5234	84.0656	61.5234	84.039	61.5234	84.0849	61.5234	84.064	61.5234	84.0977	61.5234	84.0833	61.5234	84.1039	61.5234	84.0965	61.5234	84.1035
64.4531	84.0636	64.4531	84.0715	64.4531	84.0659	64.4531	84.0892	64.4531	84.0783	64.4531	84.1158	64.4531	84.1001	64.4531	84.15	64.4531	84.1302	64.4531	84.1899	64.4531	84.167	64.4531	84.2337	64.4531	84.2085	64.4531	84.279	64.4531	84.2527	64.4531	84.3239	64.4531	84.2974	64.4531	84.3665	64.4531	84.3407	64.4531	84.4052	64.4531	84.3809	64.4531	84.439	64.4531	84.4168	64.4531	84.4674	64.4531	84.4476	64.4531	84.4901	64.4531	84.4732	64.4531	84.5076	64.4531	84.4937	64.4531	84.52	64.4531	84.5094	64.4531	84.528	64.4531	84.5208	64.4531	84.5319	64.4531	84.5282	64.4531	84.5319
67.3828	84.4585	67.3828	84.4644	67.3828	84.4618	67.3828	84.4791	67.3828	84.4743	67.3828	84.5018	67.3828	84.4952	67.3828	84.5313	67.3828	84.5234	67.3828	84.5657	67.3828	84.5575	67.3828	84.6033	67.3828	84.5954	67.3828	84.6419	67.3828	84.6351	67.3828	84.6795	67.3828	84.6745	67.3828	84.7144	67.3828	84.7116	67.3828	84.7451	67.3828	84.7448	67.3828	84.7708	67.3828	84.7728	67.3828	84.7913	67.3828	84.795	67.3828	84.8066	67.3828	84.8116	67.3828	84.8176	67.3828	84.8229	67.3828	84.8251	67.3828	84.8299	67.3828	84.83	67.3828	84.8337	67.3828	84.8331	67.3828	84.8351	67.3828	84.8347
70.3125	84.9285	70.3125	84.9336	70.3125	84.9309	70.3125	84.946	70.3125	84.9408	70.3125	84.9648	70.3125	84.9576	70.3125	84.9888	70.3125	84.9804	70.3125	85.0166	70.3125	85.0077	70.3125	85.0462	70.3125	85.0379	70.3125	85.076	70.3125	85.069	70.3125	85.1039	70.3125	85.0991	70.3125	85.1285	70.3125	85.1263	70.3125	85.1484	70.3125	85.149	70.3125	85.163	70.3125	85.1664	70.3125	85.1724	70.3125	85.178	70.3125	85.1772	70.3125	85.1842	70.3125	85.1785	70.3125	85.1859	70.3125	85.1777	70.3125	85.1845	70.3125	85.1764	70.3125	85.1816	70.3125	85.1757	70.3125	85.1785	70.3125	85.1764
73.2422	85.3293	73.2422	85.33	73.2422	85.3342	73.2422	85.336	73.2422	85.3446	73.2422	85.3468	73.2422	85.3599	73.2422	85.3613	73.2422	85.3791	73.2422	85.3782	73.2422	85.4011	73.2422	85.3961	73.2422	85.4242	73.2422	85.4132	73.2422	85.4466	73.2422	85.4281	73.2422	85.4666	73.2422	85.4393	73.2422	85.4824	73.2422	85.4461	73.2422	85.4928	73.2422	85.4481	73.2422	85.4969	73.2422	85.4458	73.2422	85.4948	73.2422	85.4403	73.2422	85.487	73.2422	85.4332	73.2422	85.475	73.2422	85.4266	73.2422	85.4608	73.2422	85.4222	73.2422	85.4466	73.2422	85.4217	73.2422	85.4343	73.2422	85.4257
76.1719	85.6145	76.1719	85.6167	76.1719	85.617	76.1719	85.6234	76.1719	85.624	76.1719	85.6337	76.1719	85.6353	76.1719	85.6467	76.1719	85.65	76.1719	85.6613	76.1719	85.6668	76.1719	85.6758	76.1719	85.6845	76.1719	85.6887	76.1719	85.7013	76.1719	85.6985	76.1719	85.7154	76.1719	85.7039	76.1719	85.7253	76.1719	85.7042	76.1719	85.7298	76.1719	85.6992	76.1719	85.7281	76.1719	85.6894	76.1719	85.7202	76.1719	85.6764	76.1719	85.7072	76.1719	85.6621	76.1719	85.6906	76.1719	85.6487	76.1719	85.6727	76.1719	85.6387	76.1719	85.656	76.1719	85.6338	76.1719	85.6429	76.1719	85.6352
79.1016	85.895	79.1016	85.8991	79.1016	85.8941	79.1016	85.906	79.1016	85.8963	79.1016	85.9152	79.1016	85.9015	79.1016	85.9255	79.1016	85.9089	79.1016	85.9359	79.1016	85.9176	79.1016	85.945	79.1016	85.9262	79.1016	85.9512	79.1016	85.9335	79.1016	85.9532	79.1016	85.9378	79.1016	85.9498	79.1016	85.9378	79.1016	85.9404	79.1016	85.9325	79.1016	85.925	79.1016	85.9214	79.1016	85.9045	79.1016	85.9049	79.1016	85.8807	79.1016	85.8841	79.1016	85.8558	79.1016	85.861	79.1016	85.8327	79.1016	85.8384	79.1016	85.8143	79.1016	85.819	79.1016	85.8029	79.1016	85.8055	79.1016	85.7998
82.0313	86.0501	82.0313	86.0543	82.0313	86.0481	82.0313	86.0603	82.0313	86.0483	82.0313	86.0676	82.0313	86.0505	82.0313	86.0755	82.0313	86.0542	82.0313	86.0827	82.0313	86.0586	82.0313	86.0881	82.0313	86.0625	82.0313	86.0903	82.0313	86.0648	82.0313	86.0882	82.0313	86.0641	82.0313	86.0805	82.0313	86.0592	82.0313	86.0668	82.0313	86.0493	82.0313	86.0472	82.0313	86.0339	82.0313	86.0226	82.0313	86.0136	82.0313	85.9947	82.0313	85.9897	82.0313	85.9662	82.0313	85.9641	82.0313	85.9398	82.0313	85.9396	82.0313	85.9185	82.0313	85.9192	82.0313	85.9049	82.0313	85.9055	82.0313	85.9004
84.9609	86.0153	84.9609	86.018	84.9609	86.0143	84.9609	86.022	84.9609	86.0149	84.9609	86.0271	84.9609	86.017	84.9609	86.0325	84.9609	86.0201	84.9609	86.0374	84.9609	86.0236	84.9609	86.0408	84.9609	86.0265	84.9609	86.0413	84.9609	86.0277	84.9609	86.0379	84.9609	86.026	84.9609	86.0297	84.9609	86.0203	84.9609	86.016	84.9609	86.0098	84.9609	85.9969	84.9609	85.9941	84.9609	85.9732	84.9609	85.9736	84.9609	85.9465	84.9609	85.9496	84.9609	85.9194	84.9609	85.924	84.9609	85.8944	84.9609	85.8995	84.9609	85.8745	84.9609	85.8787	84.9609	85.8621	84.9609	85.8645	84.9609	85.8587
87.8906	86.0565	87.8906	86.0588	87.8906	86.0543	87.8906	86.061	87.8906	86.0524	87.8906	86.0628	87.8906	86.0506	87.8906	86.0637	87.8906	86.0487	87.8906	86.063	87.8906	86.0462	87.8906	86.0598	87.8906	86.0425	87.8906	86.0533	87.8906	86.0366	87.8906	86.0424	87.8906	86.0277	87.8906	86.0266	87.8906	86.0148	87.8906	86.0053	87.8906	85.9973	87.8906	85.979	87.8906	85.9751	87.8906	85.9487	87.8906	85.9487	87.8906	85.9162	87.8906	85.9193	87.8906	85.884	87.8906	85.8891	87.8906	85.8551	87.8906	85.8607	87.8906	85.8324	87.8906	85.8372	87.8906	85.8183	87.8906	85.821	87.8906	85.8144
90.8203	86.123	90.8203	86.1253	90.8203	86.1195	90.8203	86.1263	90.8203	86.1148	90.8203	86.1256	90.8203	86.109	90.8203	86.1228	90.8203	86.1018	90.8203	86.1175	90.8203	86.093	90.8203	86.1089	90.8203	86.0822	90.8203	86.0963	90.8203	86.0686	90.8203	86.0789	90.8203	86.0517	90.8203	86.0561	90.8203	86.0307	90.8203	86.0278	90.8203	86.0054	90.8203	85.9943	90.8203	85.9757	90.8203	85.9569	90.8203	85.9426	90.8203	85.9176	90.8203	85.9074	90.8203	85.879	90.8203	85.8725	90.8203	85.8444	90.8203	85.8407	90.8203	85.8169	90.8203	85.8151	90.8203	85.7991	90.8203	85.7985	90.8203	85.7929
93.75	86.1354	93.75	86.1378	93.75	86.1312	93.75	86.1382	93.75	86.1253	93.75	86.1365	93.75	86.1177	93.75	86.1324	93.75	86.1084	93.75	86.1256	93.75	86.0973	93.75	86.1155	93.75	86.0841	93.75	86.1016	93.75	86.0684	93.75	86.0831	93.75	86.0497	93.75	86.0597	93.75	86.0275	93.75	86.0311	93.75	86.0015	93.75	85.9977	93.75	85.9719	93.75	85.9607	93.75	85.9393	93.75	85.922	93.75	85.9052	93.75	85.8841	93.75	85.8718	93.75	85.8499	93.75	85.8416	93.75	85.8227	93.75	85.8176	93.75	85.8047	93.75	85.8024	93.75	85.7978
96.6797	86.2265	96.6797	86.2275	96.6797	86.222	96.6797	86.2252	96.6797	86.2142	96.6797	86.2194	96.6797	86.2033	96.6797	86.2102	96.6797	86.1894	96.6797	86.1975	96.6797	86.1725	96.6797	86.1811	96.6797	86.1529	96.6797	86.1606	96.6797	86.1303	96.6797	86.1359	96.6797	86.1045	96.6797	86.1065	96.6797	86.0756	96.6797	86.0725	96.6797	86.0433	96.6797	86.0344	96.6797	86.0082	96.6797	85.9935	96.6797	85.9709	96.6797	85.9514	96.6797	85.9331	96.6797	85.9109	96.6797	85.8969	96.6797	85.8748	96.6797	85.8648	96.6797	85.846	96.6797	85.8397	96.6797	85.827	96.6797	85.824	96.6797	85.8195
102.539	86.2814	102.539	86.2788	102.539	86.2778	102.539	86.2705	102.539	86.2681	102.539	86.2566	102.539	86.2525	102.539	86.2376	102.539	86.2312	102.539	86.214	102.539	86.2047	102.539	86.1861	102.539	86.1736	102.539	86.154	102.539	86.1382	102.539	86.1179	102.539	86.0991	102.539	86.0779	102.539	86.0568	102.539	86.0343	102.539	86.0119	102.539	85.988	102.539	85.9654	102.539	85.94	102.539	85.9185	102.539	85.8924	102.539	85.873	102.539	85.8474	102.539	85.831	102.539	85.8079	102.539	85.7952	102.539	85.7766	102.539	85.768	102.539	85.7559	102.539	85.7515	102.539	85.7473
105.469	86.2384	105.469	86.2294	105.469	86.2401	105.469	86.2134	105.469	86.2344	105.469	86.1913	105.469	86.2213	105.469	86.1638	105.469	86.2013	105.469	86.1318	105.469	86.1749	105.469	86.096	105.469	86.1429	105.469	86.0573	105.469	86.1057	105.469	86.0159	105.469	86.0642	105.469	85.9725	105.469	86.0191	105.469	85.9274	105.469	85.971	105.469	85.8815	105.469	85.9212	105.469	85.8357	105.469	85.8708	105.469	85.7918	105.469	85.8218	105.469	85.7517	105.469	85.7762	105.469	85.7177	105.469	85.7364	105.469	85.6923	105.469	85.705	105.469	85.6774	105.469	85.6838	105.469	85.6745
108.398	86.1591	108.398	86.1489	108.398	86.1605	108.398	86.1304	108.398	86.1531	108.398	86.1043	108.398	86.1374	108.398	86.0715	108.398	86.1139	108.398	86.0332	108.398	86.0834	108.398	85.9905	108.398	86.0469	108.398	85.9446	108.398	86.0054	108.398	85.8964	108.398	85.9598	108.398	85.847	108.398	85.911	108.398	85.7971	108.398	85.8599	108.398	85.7479	108.398	85.8077	108.398	85.7005	108.398	85.7556	108.398	85.6566	108.398	85.7054	108.398	85.6178	108.398	85.6589	108.398	85.5862	108.398	85.6183	108.398	85.5637	108.398	85.5857	108.398	85.5518	108.398	85.5629	108.398	85.5514
