"SPL Vertical"																																																																							
"On-Axis"		"10°"		"-10°"		"20°"		"-20°"		"30°"		"-30°"		"40°"		"-40°"		"50°"		"-50°"		"60°"		"-60°"		"70°"		"-70°"		"80°"		"-80°"		"90°"		"-90°"		"100°"		"-100°"		"110°"		"-110°"		"120°"		"-120°"		"130°"		"-130°"		"140°"		"-140°"		"150°"		"-150°"		"160°"		"-160°"		"170°"		"-170°"		"180°"	
"Frequency [Hz]"	"Sound Pessure Level [dB]  / [2.83V 1m] "	"Frequency [Hz]"	"Sound Pessure Level [dB]  / [2.83V 1m] "	"Frequency [Hz]"	"Sound Pessure Level [dB]  / [2.83V 1m] "	"Frequency [Hz]"	"Sound Pessure Level [dB]  / [2.83V 1m] "	"Frequency [Hz]"	"Sound Pessure Level [dB]  / [2.83V 1m] "	"Frequency [Hz]"	"Sound Pessure Level [dB]  / [2.83V 1m] "	"Frequency [Hz]"	"Sound Pessure Level [dB]  / [2.83V 1m] "	"Frequency [Hz]"	"Sound Pessure Level [dB]  / [2.83V 1m] "	"Frequency [Hz]"	"Sound Pessure Level [dB]  / [2.83V 1m] "	"Frequency [Hz]"	"Sound Pessure Level [dB]  / [2.83V 1m] "	"Frequency [Hz]"	"Sound Pessure Level [dB]  / [2.83V 1m] "	"Frequency [Hz]"	"Sound Pessure Level [dB]  / [2.83V 1m] "	"Frequency [Hz]"	"Sound Pessure Level [dB]  / [2.83V 1m] "	"Frequency [Hz]"	"Sound Pessure Level [dB]  / [2.83V 1m] "	"Frequency [Hz]"	"Sound Pessure Level [dB]  / [2.83V 1m] "	"Frequency [Hz]"	"Sound Pessure Level [dB]  / [2.83V 1m] "	"Frequency [Hz]"	"Sound Pessure Level [dB]  / [2.83V 1m] "	"Frequency [Hz]"	"Sound Pessure Level [dB]  / [2.83V 1m] "	"Frequency [Hz]"	"Sound Pessure Level [dB]  / [2.83V 1m] "	"Frequency [Hz]"	"Sound Pessure Level [dB]  / [2.83V 1m] "	"Frequency [Hz]"	"Sound Pessure Level [dB]  / [2.83V 1m] "	"Frequency [Hz]"	"Sound Pessure Level [dB]  / [2.83V 1m] "	"Frequency [Hz]"	"Sound Pessure Level [dB]  / [2.83V 1m] "	"Frequency [Hz]"	"Sound Pessure Level [dB]  / [2.83V 1m] "	"Frequency [Hz]"	"Sound Pessure Level [dB]  / [2.83V 1m] "	"Frequency [Hz]"	"Sound Pessure Level [dB]  / [2.83V 1m] "	"Frequency [Hz]"	"Sound Pessure Level [dB]  / [2.83V 1m] "	"Frequency [Hz]"	"Sound Pessure Level [dB]  / [2.83V 1m] "	"Frequency [Hz]"	"Sound Pessure Level [dB]  / [2.83V 1m] "	"Frequency [Hz]"	"Sound Pessure Level [dB]  / [2.83V 1m] "	"Frequency [Hz]"	"Sound Pessure Level [dB]  / [2.83V 1m] "	"Frequency [Hz]"	"Sound Pessure Level [dB]  / [2.83V 1m] "	"Frequency [Hz]"	"Sound Pessure Level [dB]  / [2.83V 1m] "	"Frequency [Hz]"	"Sound Pessure Level [dB]  / [2.83V 1m] "	"Frequency [Hz]"	"Sound Pessure Level [dB]  / [2.83V 1m] "	"Frequency [Hz]"	"Sound Pessure Level [dB]  / [2.83V 1m] "
20.5078	56.7749	20.5078	57.0992	20.5078	56.2591	20.5078	57.2216	20.5078	55.5554	20.5078	57.1223	20.5078	54.6659	20.5078	56.7712	20.5078	53.6037	20.5078	56.1277	20.5078	52.4262	20.5078	55.1498	20.5078	51.3102	20.5078	53.8378	20.5078	50.64	20.5078	52.4025	20.5078	50.8614	20.5078	51.6328	20.5078	51.9867	20.5078	52.4958	20.5078	53.5757	20.5078	54.5037	20.5078	55.2315	20.5078	56.6029	20.5078	56.7656	20.5078	58.3631	20.5078	58.1126	20.5078	59.7136	20.5078	59.2538	20.5078	60.6781	20.5078	60.1829	20.5078	61.2948	20.5078	60.8938	20.5078	61.5984	20.5078	61.3768	20.5078	61.6179
23.4375	59.8313	23.4375	60.082	23.4375	59.4439	23.4375	60.1758	23.4375	58.9483	23.4375	60.0969	23.4375	58.39	23.4375	59.8368	23.4375	57.8459	23.4375	59.4066	23.4375	57.4357	23.4375	58.8681	23.4375	57.3102	23.4375	58.3899	23.4375	57.588	23.4375	58.2794	23.4375	58.2754	23.4375	58.825	23.4375	59.2625	23.4375	59.9881	23.4375	60.4001	23.4375	61.4385	23.4375	61.5663	23.4375	62.8682	23.4375	62.6826	23.4375	64.1128	23.4375	63.7024	23.4375	65.1094	23.4375	64.5969	23.4375	65.843	23.4375	65.3459	23.4375	66.3187	23.4375	65.9323	23.4375	66.5494	23.4375	66.3394	23.4375	66.5507
26.3672	63.6236	26.3672	63.7806	26.3672	63.3998	26.3672	63.852	26.3672	63.139	26.3672	63.8304	26.3672	62.8837	26.3672	63.724	26.3672	62.6897	26.3672	63.5672	26.3672	62.622	26.3672	63.4342	26.3672	62.7409	26.3672	63.445	26.3672	63.081	26.3672	63.7341	26.3672	63.6366	26.3672	64.37	26.3672	64.364	26.3672	65.2947	26.3672	65.2002	26.3672	66.3615	26.3672	66.0824	26.3672	67.4214	26.3672	66.9575	26.3672	68.3698	26.3672	67.7846	26.3672	69.1481	26.3672	68.5318	26.3672	69.729	26.3672	69.1734	26.3672	70.1045	26.3672	69.6874	26.3672	70.2772	26.3672	70.0542	26.3672	70.256
29.2969	67.7995	29.2969	67.8989	29.2969	67.6989	29.2969	67.9879	29.2969	67.6139	29.2969	68.0664	29.2969	67.5662	29.2969	68.1458	29.2969	67.5806	29.2969	68.2511	29.2969	67.6811	29.2969	68.4199	29.2969	67.8861	29.2969	68.6956	29.2969	68.2043	29.2969	69.1115	29.2969	68.6321	29.2969	69.6725	29.2969	69.1543	29.2969	70.3477	29.2969	69.7468	29.2969	71.0789	29.2969	70.3813	29.2969	71.8004	29.2969	71.028	29.2969	72.4544	29.2969	71.6586	29.2969	72.9983	29.2969	72.2463	29.2969	73.4048	29.2969	72.7665	29.2969	73.6601	29.2969	73.1968	29.2969	73.7604	29.2969	73.5169	29.2969	73.7094
32.2266	71.3055	32.2266	71.3897	32.2266	71.2408	32.2266	71.4894	32.2266	71.2032	32.2266	71.6053	32.2266	71.2026	32.2266	71.7438	32.2266	71.2499	32.2266	71.9166	32.2266	71.3556	32.2266	72.1396	32.2266	71.5278	32.2266	72.4291	32.2266	71.7708	32.2266	72.7954	32.2266	72.0842	32.2266	73.2368	32.2266	72.4622	32.2266	73.7361	32.2266	72.894	32.2266	74.2629	32.2266	73.3644	32.2266	74.7795	32.2266	73.8554	32.2266	75.2484	32.2266	74.3468	32.2266	75.6381	32.2266	74.8171	32.2266	75.9253	32.2266	75.245	32.2266	76.0963	32.2266	75.6095	32.2266	76.1453	32.2266	75.8915	32.2266	76.0744
35.1563	73.9524	35.1563	74.0389	35.1563	73.891	35.1563	74.1485	35.1563	73.8582	35.1563	74.2814	35.1563	73.8587	35.1563	74.44	35.1563	73.8978	35.1563	74.629	35.1563	73.9804	35.1563	74.854	35.1563	74.1107	35.1563	75.1203	35.1563	74.2914	35.1563	75.4299	35.1563	74.5229	35.1563	75.7791	35.1563	74.8029	35.1563	76.1564	35.1563	75.1262	35.1563	76.5435	35.1563	75.4842	35.1563	76.9169	35.1563	75.8654	35.1563	77.2515	35.1563	76.2556	35.1563	77.5247	35.1563	76.6382	35.1563	77.7185	35.1563	76.9955	35.1563	77.821	35.1563	77.3092	35.1563	77.8272	35.1563	77.5619	35.1563	77.7385
38.0859	75.8158	38.0859	75.9094	38.0859	75.7478	38.0859	76.027	38.0859	75.7074	38.0859	76.168	38.0859	75.6974	38.0859	76.3324	38.0859	75.7203	38.0859	76.521	38.0859	75.7788	38.0859	76.7347	38.0859	75.8753	38.0859	76.9739	38.0859	76.0112	38.0859	77.2372	38.0859	76.187	38.0859	77.5199	38.0859	76.4017	38.0859	77.8137	38.0859	76.6522	38.0859	78.1058	38.0859	76.9336	38.0859	78.3803	38.0859	77.2381	38.0859	78.6201	38.0859	77.5557	38.0859	78.8087	38.0859	77.8737	38.0859	78.9327	38.0859	78.1776	38.0859	78.9832	38.0859	78.4522	38.0859	78.9563	38.0859	78.6821	38.0859	78.8537
41.0156	77.213	41.0156	77.3085	41.0156	77.1413	41.0156	77.4263	41.0156	77.0948	41.0156	77.565	41.0156	77.0752	41.0156	77.7234	41.0156	77.0838	41.0156	77.9003	41.0156	77.1222	41.0156	78.0943	41.0156	77.1913	41.0156	78.3035	41.0156	77.2921	41.0156	78.5249	41.0156	77.4248	41.0156	78.7538	41.0156	77.5888	41.0156	78.9834	41.0156	77.7825	41.0156	79.2044	41.0156	78.0028	41.0156	79.4055	41.0156	78.2447	41.0156	79.5746	41.0156	78.5012	41.0156	79.7	41.0156	78.7631	41.0156	79.7719	41.0156	79.019	41.0156	79.7841	41.0156	79.2564	41.0156	79.7343	41.0156	79.4624	41.0156	79.625
43.9453	78.2838	43.9453	78.3857	43.9453	78.2045	43.9453	78.5088	43.9453	78.1493	43.9453	78.651	43.9453	78.1192	43.9453	78.8102	43.9453	78.115	43.9453	78.9837	43.9453	78.1375	43.9453	79.1686	43.9453	78.187	43.9453	79.3616	43.9453	78.2638	43.9453	79.5585	43.9453	78.368	43.9453	79.7545	43.9453	78.4992	43.9453	79.9431	43.9453	78.6563	43.9453	80.1171	43.9453	78.8373	43.9453	80.2677	43.9453	79.0392	43.9453	80.3862	43.9453	79.2568	43.9453	80.4642	43.9453	79.4832	43.9453	80.4949	43.9453	79.7097	43.9453	80.4746	43.9453	79.9258	43.9453	80.4027	43.9453	80.1203	43.9453	80.2824
46.875	79.286	46.875	79.3922	46.875	79.2013	46.875	79.5179	46.875	79.1391	46.875	79.6609	46.875	79.1003	46.875	79.8181	46.875	79.0854	46.875	79.9863	46.875	79.0946	46.875	80.1615	46.875	79.1279	46.875	80.3393	46.875	79.1852	46.875	80.5151	46.875	79.2663	46.875	80.6834	46.875	79.3711	46.875	80.8388	46.875	79.4987	46.875	80.9748	46.875	79.6482	46.875	81.0851	46.875	79.8174	46.875	81.1631	46.875	80.0028	46.875	81.2033	46.875	80.1995	46.875	81.2015	46.875	80.4005	46.875	81.1558	46.875	80.5973	46.875	81.0673	46.875	80.7803	46.875	80.9399
49.8047	80.219	49.8047	80.3314	49.8047	80.1273	49.8047	80.4624	49.8047	80.0578	49.8047	80.6089	49.8047	80.0114	49.8047	80.7674	49.8047	79.9883	49.8047	80.9337	49.8047	79.9887	49.8047	81.103	49.8047	80.0121	49.8047	81.2705	49.8047	80.0581	49.8047	81.4309	49.8047	80.1262	49.8047	81.579	49.8047	80.2157	49.8047	81.7095	49.8047	80.3259	49.8047	81.8172	49.8047	80.4558	49.8047	81.8971	49.8047	80.6038	49.8047	81.9448	49.8047	80.7674	49.8047	81.9566	49.8047	80.9427	49.8047	81.9306	49.8047	81.1245	49.8047	81.8665	49.8047	81.3059	49.8047	81.7664	49.8047	81.4789	49.8047	81.635
52.7344	81.211	52.7344	81.3277	52.7344	81.1126	52.7344	81.4602	52.7344	81.0344	52.7344	81.6054	52.7344	80.9772	52.7344	81.7591	52.7344	80.9416	52.7344	81.9169	52.7344	80.9273	52.7344	82.0736	52.7344	80.9342	52.7344	82.2241	52.7344	80.9615	52.7344	82.3631	52.7344	81.0087	52.7344	82.4856	52.7344	81.0752	52.7344	82.5869	52.7344	81.1606	52.7344	82.6627	52.7344	81.2642	52.7344	82.7094	52.7344	81.3852	52.7344	82.7242	52.7344	81.5222	52.7344	82.7054	52.7344	81.6729	52.7344	82.6527	52.7344	81.8335	52.7344	82.5677	52.7344	81.9988	52.7344	82.4538	52.7344	82.1622	52.7344	82.3164
55.6641	82.062	55.6641	82.1833	55.6641	81.9574	55.6641	82.3186	55.6641	81.8716	55.6641	82.4642	55.6641	81.8056	55.6641	82.616	55.6641	81.7599	55.6641	82.7689	55.6641	81.7345	55.6641	82.9176	55.6641	81.729	55.6641	83.0568	55.6641	81.7427	55.6641	83.1811	55.6641	81.7751	55.6641	83.2857	55.6641	81.8255	55.6641	83.3661	55.6641	81.8935	55.6641	83.4188	55.6641	81.9789	55.6641	83.441	55.6641	82.0814	55.6641	83.4313	55.6641	82.2002	55.6641	83.3893	55.6641	82.334	55.6641	83.3161	55.6641	82.4803	55.6641	83.2146	55.6641	82.635	55.6641	83.0894	55.6641	82.7925	55.6641	82.9464
58.5938	82.854	58.5938	82.9768	58.5938	82.7467	58.5938	83.1122	58.5938	82.6569	58.5938	83.2564	58.5938	82.5859	58.5938	83.4049	58.5938	82.5341	58.5938	83.5526	58.5938	82.5016	58.5938	83.694	58.5938	82.4879	58.5938	83.8237	58.5938	82.4921	58.5938	83.9363	58.5938	82.5137	58.5938	84.027	58.5938	82.552	58.5938	84.0917	58.5938	82.6068	58.5938	84.1272	58.5938	82.6778	58.5938	84.1317	58.5938	82.7653	58.5938	84.1043	58.5938	82.869	58.5938	84.0458	58.5938	82.9884	58.5938	83.9584	58.5938	83.1218	58.5938	83.846	58.5938	83.2663	58.5938	83.714	58.5938	83.4172	58.5938	83.5688
61.5234	83.5326	61.5234	83.6571	61.5234	83.4226	61.5234	83.7929	61.5234	83.3294	61.5234	83.9362	61.5234	83.2543	61.5234	84.0822	61.5234	83.1978	61.5234	84.2256	61.5234	83.1598	61.5234	84.3607	61.5234	83.1397	61.5234	84.482	61.5234	83.1368	61.5234	84.5842	61.5234	83.1501	61.5234	84.6626	61.5234	83.1791	61.5234	84.7134	61.5234	83.2232	61.5234	84.7339	61.5234	83.2825	61.5234	84.7227	61.5234	83.3573	61.5234	84.68	61.5234	83.448	61.5234	84.6073	61.5234	83.5546	61.5234	84.508	61.5234	83.6762	61.5234	84.3868	61.5234	83.811	61.5234	84.2497	61.5234	83.9551	61.5234	84.1035
64.4531	84.0636	64.4531	84.1911	64.4531	83.9499	64.4531	84.329	64.4531	83.8524	64.4531	84.4731	64.4531	83.7726	64.4531	84.6185	64.4531	83.7113	64.4531	84.7597	64.4531	83.6682	64.4531	84.8911	64.4531	83.6429	64.4531	85.007	64.4531	83.6345	64.4531	85.102	64.4531	83.642	64.4531	85.1717	64.4531	83.6645	64.4531	85.2125	64.4531	83.7016	64.4531	85.2218	64.4531	83.7533	64.4531	85.1989	64.4531	83.82	64.4531	85.1444	64.4531	83.9023	64.4531	85.0606	64.4531	84.0007	64.4531	84.9514	64.4531	84.115	64.4531	84.8225	64.4531	84.2439	64.4531	84.6803	64.4531	84.3844	64.4531	84.5319
67.3828	84.4585	67.3828	84.5878	67.3828	84.3422	67.3828	84.7266	67.3828	84.2415	67.3828	84.8705	67.3828	84.158	67.3828	85.0146	67.3828	84.0924	67.3828	85.1532	67.3828	84.0447	67.3828	85.2806	67.3828	84.0144	67.3828	85.3912	67.3828	84.0004	67.3828	85.4798	67.3828	84.0018	67.3828	85.5419	67.3828	84.0178	67.3828	85.574	67.3828	84.048	67.3828	85.574	67.3828	84.0923	67.3828	85.5414	67.3828	84.1514	67.3828	85.4771	67.3828	84.2262	67.3828	85.3842	67.3828	84.3175	67.3828	85.267	67.3828	84.4257	67.3828	85.1316	67.3828	84.55	67.3828	84.985	67.3828	84.6877	67.3828	84.8347
70.3125	84.9285	70.3125	85.0632	70.3125	84.8054	70.3125	85.2057	70.3125	84.6969	70.3125	85.3509	70.3125	84.6053	70.3125	85.4938	70.3125	84.5317	70.3125	85.6284	70.3125	84.4762	70.3125	85.7492	70.3125	84.4384	70.3125	85.8506	70.3125	84.4174	70.3125	85.9277	70.3125	84.4122	70.3125	85.9764	70.3125	84.4216	70.3125	85.9938	70.3125	84.445	70.3125	85.9785	70.3125	84.4822	70.3125	85.9305	70.3125	84.5337	70.3125	85.8519	70.3125	84.6005	70.3125	85.7463	70.3125	84.6834	70.3125	85.6191	70.3125	84.7835	70.3125	85.4767	70.3125	84.9004	70.3125	85.3267	70.3125	85.0325	70.3125	85.1764
73.2422	85.3293	73.2422	85.466	73.2422	85.2024	73.2422	85.6086	73.2422	85.0887	73.2422	85.752	73.2422	84.9905	73.2422	85.891	73.2422	84.9091	73.2422	86.0198	73.2422	84.845	73.2422	86.1327	73.2422	84.7978	73.2422	86.2245	73.2422	84.7667	73.2422	86.2902	73.2422	84.7508	73.2422	86.3261	73.2422	84.7492	73.2422	86.3296	73.2422	84.7611	73.2422	86.2996	73.2422	84.7866	73.2422	86.2369	73.2422	84.8264	73.2422	86.1438	73.2422	84.8817	73.2422	86.0249	73.2422	84.9541	73.2422	85.886	73.2422	85.045	73.2422	85.7346	73.2422	85.1549	73.2422	85.5786	73.2422	85.2828	73.2422	85.4257
76.1719	85.6145	76.1719	85.7536	76.1719	85.4845	76.1719	85.8975	76.1719	85.367	76.1719	86.0411	76.1719	85.2646	76.1719	86.179	76.1719	85.1787	76.1719	86.3054	76.1719	85.1099	76.1719	86.4146	76.1719	85.0579	76.1719	86.5013	76.1719	85.0221	76.1719	86.5609	76.1719	85.0014	76.1719	86.5898	76.1719	84.9947	76.1719	86.5855	76.1719	85.0016	76.1719	86.5474	76.1719	85.022	76.1719	86.4764	76.1719	85.0566	76.1719	86.3754	76.1719	85.1068	76.1719	86.2492	76.1719	85.1744	76.1719	86.1042	76.1719	85.2609	76.1719	85.9482	76.1719	85.3673	76.1719	85.7892	76.1719	85.493	76.1719	85.6352
79.1016	85.895	79.1016	86.0357	79.1016	85.762	79.1016	86.1797	79.1016	85.6403	79.1016	86.3218	79.1016	85.5326	79.1016	86.4564	79.1016	85.4407	79.1016	86.5779	79.1016	85.3652	79.1016	86.6808	79.1016	85.3062	79.1016	86.7597	79.1016	85.263	79.1016	86.8103	79.1016	85.2345	79.1016	86.829	79.1016	85.2199	79.1016	86.814	79.1016	85.2186	79.1016	86.7645	79.1016	85.2305	79.1016	86.6822	79.1016	85.2565	79.1016	86.5703	79.1016	85.2981	79.1016	86.434	79.1016	85.3575	79.1016	86.2805	79.1016	85.4367	79.1016	86.118	79.1016	85.5373	79.1016	85.955	79.1016	85.659	79.1016	85.7998
82.0313	86.0501	82.0313	86.1922	82.0313	85.915	82.0313	86.3368	82.0313	85.7906	82.0313	86.4786	82.0313	85.6799	82.0313	86.612	82.0313	85.5847	82.0313	86.7314	82.0313	85.5057	82.0313	86.8312	82.0313	85.443	82.0313	86.9063	82.0313	85.3959	82.0313	86.9523	82.0313	85.3636	82.0313	86.9661	82.0313	85.345	82.0313	86.9456	82.0313	85.3396	82.0313	86.8908	82.0313	85.3476	82.0313	86.8031	82.0313	85.3697	82.0313	86.686	82.0313	85.4077	82.0313	86.5452	82.0313	85.4638	82.0313	86.3876	82.0313	85.5403	82.0313	86.2219	82.0313	85.6389	82.0313	86.0567	82.0313	85.7596	82.0313	85.9004
84.9609	86.0153	84.9609	86.1597	84.9609	85.8776	84.9609	86.306	84.9609	85.7507	84.9609	86.4489	84.9609	85.6376	84.9609	86.5827	84.9609	85.5403	84.9609	86.7016	84.9609	85.4598	84.9609	86.8003	84.9609	85.3962	84.9609	86.8737	84.9609	85.3488	84.9609	86.9178	84.9609	85.3167	84.9609	86.9295	84.9609	85.2987	84.9609	86.9071	84.9609	85.2943	84.9609	86.8506	84.9609	85.3033	84.9609	86.7615	84.9609	85.3265	84.9609	86.6436	84.9609	85.3655	84.9609	86.5023	84.9609	85.4223	84.9609	86.3447	84.9609	85.4992	84.9609	86.1792	84.9609	85.5978	84.9609	86.0145	84.9609	85.7183	84.9609	85.8587
87.8906	86.0565	87.8906	86.2039	87.8906	85.9144	87.8906	86.3516	87.8906	85.7822	87.8906	86.4941	87.8906	85.6631	87.8906	86.6254	87.8906	85.5597	87.8906	86.7399	87.8906	85.473	87.8906	86.8323	87.8906	85.4035	87.8906	86.8978	87.8906	85.3506	87.8906	86.9327	87.8906	85.3133	87.8906	86.9345	87.8906	85.2906	87.8906	86.9019	87.8906	85.2816	87.8906	86.8354	87.8906	85.2863	87.8906	86.7372	87.8906	85.3053	87.8906	86.6115	87.8906	85.34	87.8906	86.4639	87.8906	85.3925	87.8906	86.302	87.8906	85.4651	87.8906	86.1342	87.8906	85.5597	87.8906	85.969	87.8906	85.6767	87.8906	85.8144
90.8203	86.123	90.8203	86.2724	90.8203	85.9779	90.8203	86.4208	90.8203	85.8415	90.8203	86.5625	90.8203	85.7176	90.8203	86.6916	90.8203	85.6088	90.8203	86.8025	90.8203	85.5164	90.8203	86.8899	90.8203	85.4408	90.8203	86.9492	90.8203	85.3818	90.8203	86.977	90.8203	85.3383	90.8203	86.9707	90.8203	85.3095	90.8203	86.9295	90.8203	85.2944	90.8203	86.8541	90.8203	85.293	90.8203	86.7471	90.8203	85.306	90.8203	86.6129	90.8203	85.335	90.8203	86.4578	90.8203	85.3822	90.8203	86.2895	90.8203	85.4502	90.8203	86.1168	90.8203	85.5412	90.8203	85.9486	90.8203	85.6558	90.8203	85.7929
93.75	86.1354	93.75	86.2887	93.75	85.9862	93.75	86.4404	93.75	85.8458	93.75	86.5847	93.75	85.7182	93.75	86.7155	93.75	85.606	93.75	86.8272	93.75	85.511	93.75	86.9145	93.75	85.4337	93.75	86.9729	93.75	85.3735	93.75	86.999	93.75	85.3296	93.75	86.9907	93.75	85.3009	93.75	86.9473	93.75	85.2866	93.75	86.8698	93.75	85.2863	93.75	86.7608	93.75	85.3008	93.75	86.6248	93.75	85.3314	93.75	86.4681	93.75	85.3804	93.75	86.2985	93.75	85.4503	93.75	86.1245	93.75	85.543	93.75	85.955	93.75	85.6592	93.75	85.7978
96.6797	86.2265	96.6797	86.3837	96.6797	86.0718	96.6797	86.5376	96.6797	85.9249	96.6797	86.6822	96.6797	85.7902	96.6797	86.8113	96.6797	85.671	96.6797	86.9193	96.6797	85.5692	96.6797	87.0012	96.6797	85.4857	96.6797	87.0529	96.6797	85.4202	96.6797	87.0712	96.6797	85.372	96.6797	87.0546	96.6797	85.3398	96.6797	87.0027	96.6797	85.3227	96.6797	86.917	96.6797	85.3202	96.6797	86.8005	96.6797	85.3327	96.6797	86.6581	96.6797	85.3615	96.6797	86.4963	96.6797	85.4087	96.6797	86.323	96.6797	85.4767	96.6797	86.1468	96.6797	85.5675	96.6797	85.9764	96.6797	85.6821	96.6797	85.8195
102.539	86.2814	102.539	86.4489	102.539	86.1137	102.539	86.6101	102.539	85.9518	102.539	86.7585	102.539	85.8006	102.539	86.8881	102.539	85.6644	102.539	86.9931	102.539	85.5457	102.539	87.069	102.539	85.4462	102.539	87.1118	102.539	85.3663	102.539	87.1191	102.539	85.3055	102.539	87.0896	102.539	85.2631	102.539	87.0238	102.539	85.2382	102.539	86.9238	102.539	85.2305	102.539	86.7931	102.539	85.2402	102.539	86.6371	102.539	85.2685	102.539	86.4626	102.539	85.317	102.539	86.2777	102.539	85.3879	102.539	86.0913	102.539	85.4831	102.539	85.9119	102.539	85.6032	102.539	85.7473
105.469	86.2384	105.469	86.4102	105.469	86.0651	105.469	86.5742	105.469	85.8963	105.469	86.7239	105.469	85.7377	105.469	86.8533	105.469	85.5935	105.469	86.9571	105.469	85.4671	105.469	87.0307	105.469	85.3605	105.469	87.0707	105.469	85.2744	105.469	87.0748	105.469	85.2088	105.469	87.0422	105.469	85.1631	105.469	86.9734	105.469	85.1366	105.469	86.8707	105.469	85.129	105.469	86.7377	105.469	85.1404	105.469	86.5795	105.469	85.1717	105.469	86.4028	105.469	85.2244	105.469	86.2155	105.469	85.3001	105.469	86.0261	105.469	85.4004	105.469	85.8432	105.469	85.5257	105.469	85.6745
108.398	86.1591	108.398	86.3301	108.398	85.9851	108.398	86.4918	108.398	85.8144	108.398	86.6378	108.398	85.6526	108.398	86.7624	108.398	85.5043	108.398	86.8604	108.398	85.3732	108.398	86.9276	108.398	85.2616	108.398	86.9609	108.398	85.1706	108.398	86.9586	108.398	85.1005	108.398	86.9202	108.398	85.0509	108.398	86.8467	108.398	85.0214	108.398	86.7406	108.398	85.0115	108.398	86.6057	108.398	85.0216	108.398	86.4471	108.398	85.0522	108.398	86.2713	108.398	85.1045	108.398	86.0858	108.398	85.1801	108.398	85.8987	108.398	85.2799	108.398	85.7181	108.398	85.4042	108.398	85.5514
