"Vertical Reflections"					
"Floor Reflection"		"Ceiling Reflection"		"Total Vertical Reflection"	
"Frequency [Hz]"	"Sound Pessure Level [dB]  / [2.83V 1m] "	"Frequency [Hz]"	"Sound Pessure Level [dB]  / [2.83V 1m] "	"Frequency [Hz]"	"Sound Pessure Level [dB]  / [2.83V 1m] "
20.5078	54.6808	20.5078	56.0666	20.5078	55.4287
23.4375	58.418	23.4375	59.3885	23.4375	58.9303
26.3672	62.9081	26.3672	63.5767	26.3672	63.2553
29.2969	67.587	29.2969	68.2737	29.2969	67.9439
32.2266	71.2186	32.2266	71.9363	32.2266	71.5923
35.1563	73.8716	35.1563	74.6443	35.1563	74.2751
38.0859	75.7084	38.0859	76.5325	38.0859	76.1399
41.0156	77.0846	41.0156	77.9087	41.0156	77.5162
43.9453	78.1278	43.9453	78.9899	43.9453	78.5802
46.875	79.1084	46.875	79.9909	46.875	79.572
49.8047	80.0193	49.8047	80.9369	49.8047	80.5023
52.7344	80.9846	52.7344	81.9184	52.7344	81.4765
55.6641	81.8126	55.6641	82.7692	55.6641	82.3172
58.5938	82.5926	58.5938	83.5521	58.5938	83.0988
61.5234	83.2608	61.5234	84.2243	61.5234	83.7692
64.4531	83.7791	64.4531	84.7579	64.4531	84.296
67.3828	84.1644	67.3828	85.1508	67.3828	84.6855
70.3125	84.6118	70.3125	85.6251	70.3125	85.1479
73.2422	84.9968	73.2422	86.0156	73.2422	85.536
76.1719	85.2708	76.1719	86.3007	76.1719	85.8162
79.1016	85.5386	79.1016	86.5727	79.1016	86.0863
82.0313	85.6859	82.0313	86.7258	82.0313	86.2369
84.9609	85.6437	84.9609	86.6958	84.9609	86.2015
87.8906	85.6693	87.8906	86.7333	87.8906	86.2338
90.8203	85.7237	90.8203	86.7954	90.8203	86.2925
93.75	85.7244	93.75	86.8198	93.75	86.3066
96.6797	85.7966	96.6797	86.9113	96.6797	86.3896
102.539	85.8072	102.539	86.984	102.539	86.4353
105.469	85.7443	105.469	86.9477	105.469	86.3875
108.398	85.659	108.398	86.8507	108.398	86.2955
111.328	85.6732	111.328	86.8458	111.328	86.299
117.188	85.7544	117.188	86.9335	117.188	86.3839
120.117	85.7721	120.117	86.9639	120.117	86.4087
125.977	85.5535	125.977	86.7398	125.977	86.187
128.906	85.5228	128.906	86.7159	128.906	86.1602
134.766	85.6099	134.766	86.7962	134.766	86.2434
137.695	85.5508	137.695	86.7457	137.695	86.1892
143.555	85.3411	143.555	86.5606	143.555	85.9935
149.414	85.3315	149.414	86.5758	149.414	85.9981
155.273	85.3441	155.273	86.6306	155.273	86.0348
158.203	85.3333	158.203	86.608	158.203	86.0173
164.063	85.416	164.063	86.6644	164.063	86.0849
169.922	85.327	169.922	86.5954	169.922	86.0074
175.781	85.1631	175.781	86.4626	175.781	85.8613
181.641	85.1338	181.641	86.4528	181.641	85.8432
190.43	85.3185	190.43	86.7169	190.43	86.0737
196.289	85.3336	196.289	86.7511	196.289	86.0999
202.148	85.3095	202.148	86.7034	202.148	86.0622
210.938	85.3291	210.938	86.6936	210.938	86.0647
216.797	85.1309	216.797	86.6175	216.797	85.9375
225.586	84.9579	225.586	86.5694	225.586	85.8379
234.375	85.2619	234.375	86.7346	234.375	86.0604
240.234	85.036	240.234	86.4334	240.234	85.7907
249.023	85.0388	249.023	86.4262	249.023	85.7877
257.813	85.0433	257.813	86.4304	257.813	85.792
266.602	85.0652	266.602	86.2062	266.602	85.6731
278.32	84.9409	278.32	86.3397	278.32	85.6964
287.109	84.8614	287.109	86.4443	287.109	85.7245
295.898	84.9259	295.898	86.5384	295.898	85.8066
307.617	85.3384	307.617	86.641	307.617	86.0384
319.336	85.1203	319.336	86.3937	319.336	85.8035
331.055	85.4236	331.055	86.2678	331.055	85.8662
342.773	84.7798	342.773	85.9027	342.773	85.3774
354.492	85.1097	354.492	86.2077	354.492	85.6933
366.211	85.0446	366.211	86.3195	366.211	85.7287
377.93	85.4381	377.93	86.7706	377.93	86.1553
392.578	85.8774	392.578	86.0234	392.578	85.951
407.227	85.4414	407.227	85.6894	407.227	85.5672
421.875	85.7909	421.875	85.8976	421.875	85.8446
436.523	85.0841	436.523	85.3942	436.523	85.2419
451.172	85.3499	451.172	85.3781	451.172	85.364
465.82	84.6062	465.82	85.123	465.82	84.8723
483.398	84.438	483.398	84.6132	483.398	84.5265
500.977	85.1454	500.977	87.1436	500.977	86.2584
518.555	87.9487	518.555	88.3211	518.555	88.1389
536.133	86.0013	536.133	85.4598	536.133	85.739
553.711	85.7684	553.711	84.8893	553.711	85.3511
574.219	85.2992	574.219	83.7277	574.219	84.5841
594.727	84.7475	594.727	81.7038	594.727	83.487
615.234	81.815	615.234	81.6951	615.234	81.7555
638.672	82.3554	638.672	83.1367	638.672	82.7636
659.18	83.7782	659.18	83.3779	659.18	83.5826
682.617	83.8965	682.617	83.2984	682.617	83.6078
706.055	84.5785	706.055	83.3692	706.055	84.0158
732.422	85.361	732.422	83.8053	732.422	84.6525
758.789	85.4391	758.789	83.9891	758.789	84.7743
785.156	85.9564	785.156	83.6344	785.156	84.9488
811.523	85.8438	811.523	83.6658	811.523	84.8899
840.82	85.4171	840.82	83.2926	840.82	84.4835
870.117	86.2387	870.117	84.1461	870.117	85.3172
902.344	86.0845	902.344	83.6855	902.344	85.0486
931.641	86.3358	931.641	84.4384	931.641	85.4899
966.797	85.8289	966.797	84.3213	966.797	85.1402
999.023	85.848	999.023	84.9643	999.023	85.4286
1,034.18	85.6906	1,034.18	84.1741	1,034.18	84.9982
1,072.27	85.5851	1,072.27	84.0794	1,072.27	84.8972
1,110.35	85.473	1,110.35	83.9545	1,110.35	84.7798
1,148.44	85.4859	1,148.44	84.0527	1,148.44	84.8281
1,189.45	85.088	1,189.45	83.3148	1,189.45	84.2913
1,230.47	84.8395	1,230.47	83.0989	1,230.47	84.0558
1,274.41	84.8153	1,274.41	83.2549	1,274.41	84.1048
1,318.36	85.3181	1,318.36	82.6907	1,318.36	84.2001
1,365.23	85.3996	1,365.23	83.0597	1,365.23	84.3854
1,415.04	84.9016	1,415.04	82.6755	1,415.04	83.9296
1,464.84	84.4053	1,464.84	81.7272	1,464.84	83.2695
1,514.65	83.6174	1,514.65	81.4971	1,514.65	82.6854
1,570.31	83.1533	1,570.31	82.1701	1,570.31	82.6895
1,623.05	82.974	1,623.05	82.5638	1,623.05	82.7738
1,681.64	82.3711	1,681.64	82.3285	1,681.64	82.3499
1,740.23	81.577	1,740.23	81.82	1,740.23	81.7002
1,801.76	80.6934	1,801.76	82.2943	1,801.76	81.5672
1,866.21	79.7563	1,866.21	82.2515	1,866.21	81.1807
1,930.66	78.5153	1,930.66	81.3949	1,930.66	80.1895
2,000.98	77.7277	2,000.98	81.6692	2,000.98	80.1311
2,071.29	76.8548	2,071.29	81.3954	2,071.29	79.6933
2,144.53	75.7103	2,144.53	80.9266	2,144.53	79.0586
2,217.77	75.3488	2,217.77	81.0181	2,217.77	79.0495
2,296.88	75.106	2,296.88	80.7218	2,296.88	78.7646
2,378.91	75.3722	2,378.91	80.5701	2,378.91	78.7064
2,460.94	77.208	2,460.94	80.5221	2,460.94	79.1738
2,548.83	78.2517	2,548.83	80.6994	2,548.83	79.6457
2,639.65	78.7019	2,639.65	80.102	2,639.65	79.4581
2,733.4	79.8194	2,733.4	79.9238	2,733.4	79.8719
2,827.15	80.6444	2,827.15	80.2534	2,827.15	80.4533
2,926.76	81.2055	2,926.76	80.4937	2,926.76	80.8642
3,032.23	81.9777	3,032.23	80.6046	3,032.23	81.3452
3,137.7	83.018	3,137.7	81.2021	3,137.7	82.2043
3,249.02	83.2878	3,249.02	81.491	3,249.02	82.4817
3,363.28	83.3582	3,363.28	82.121	3,363.28	82.7835
3,483.4	84.1786	3,483.4	82.388	3,483.4	83.3749
3,606.45	84.4451	3,606.45	82.2658	3,606.45	83.4907
3,732.42	84.3319	3,732.42	82.3969	3,732.42	83.4713
3,864.26	84.1055	3,864.26	81.7294	3,864.26	83.078
3,999.02	84.2273	3,999.02	81.6315	3,999.02	83.1205
4,139.65	84.1857	4,139.65	81.2552	4,139.65	82.9631
4,286.13	84.065	4,286.13	81.8274	4,286.13	83.0887
4,438.48	84.0041	4,438.48	81.8244	4,438.48	83.0495
4,593.75	84.0083	4,593.75	81.6659	4,593.75	82.9932
4,757.81	84.3429	4,757.81	81.8324	4,757.81	83.2666
4,924.8	84.4788	4,924.8	81.7664	4,924.8	83.331
5,097.66	84.2721	5,097.66	81.0104	5,097.66	82.9405
5,279.3	84.2978	5,279.3	81.1325	5,279.3	82.9973
5,463.87	84.1252	5,463.87	80.5275	5,463.87	82.6887
5,657.23	83.4802	5,657.23	79.9186	5,657.23	82.0547
5,856.45	83.1492	5,856.45	79.9586	5,856.45	81.8405
6,061.52	83.1117	6,061.52	79.3915	6,061.52	81.6384
6,275.39	83.25	6,275.39	80.1145	6,275.39	81.9593
6,498.05	83.836	6,498.05	80.2153	6,498.05	82.3925
6,726.56	84.0032	6,726.56	80.0292	6,726.56	82.4557
6,963.87	84.3996	6,963.87	80.0093	6,963.87	82.7371
7,209.96	84.5483	7,209.96	80.3199	7,209.96	82.9296
7,464.84	84.4998	7,464.84	80.2907	7,464.84	82.8864
7,728.52	84.4194	7,728.52	80.5861	7,728.52	82.9126
8,000.98	84.4242	8,000.98	80.9529	8,000.98	83.0265
8,282.23	84.3343	8,282.23	81.2826	8,282.23	83.0712
8,575.2	84.5207	8,575.2	81.4015	8,575.2	83.2353
8,876.95	84.5841	8,876.95	81.0347	8,876.95	83.1623
9,190.43	84.0666	9,190.43	80.8385	9,190.43	82.7458
9,512.7	83.8801	9,512.7	80.7317	9,512.7	82.5852
9,849.61	83.9089	9,849.61	80.351	9,849.61	82.4845
10,195.3	83.4508	10,195.3	80.0625	10,195.3	82.079
10,555.7	83.9505	10,555.7	79.6109	10,555.7	82.3016
10,927.7	83.5888	10,927.7	79.3167	10,927.7	81.9582
11,314.5	83.2533	11,314.5	79.1747	11,314.5	81.6761
11,712.9	83.4796	11,712.9	79.0461	11,712.9	81.8056
12,126	83.1313	12,126	78.6855	12,126	81.4541
12,553.7	82.4978	12,553.7	77.9059	12,553.7	80.7824
12,996.1	82.0358	12,996.1	77.0964	12,996.1	80.2334
13,453.1	81.5054	13,453.1	75.9771	13,453.1	79.5673
13,927.7	81.0506	13,927.7	74.9522	13,927.7	78.994
14,419.9	80.7846	14,419.9	74.5532	14,419.9	78.702
14,929.7	80.7713	14,929.7	74.8746	14,929.7	78.7552
15,454.1	81.1346	15,454.1	75.612	15,454.1	79.1977
15,999	81.7661	15,999	76.344	15,999	79.8514
16,564.5	82.1347	16,564.5	76.6859	16,564.5	80.214
17,147.5	81.9397	17,147.5	76.4088	17,147.5	80.001
17,753.9	81.7526	17,753.9	76.1036	17,753.9	79.7884
18,377.9	81.7455	18,377.9	76.377	18,377.9	79.8428
19,028.3	81.3789	19,028.3	76.2018	19,028.3	79.52
19,699.2	80.9658	19,699.2	75.475	19,699.2	79.0359
19,998	80.799	19,998	75.1076	19,998	78.8257
