"SPL Vertical"																																																																							
"On-Axis"		"10°"		"-10°"		"20°"		"-20°"		"30°"		"-30°"		"40°"		"-40°"		"50°"		"-50°"		"60°"		"-60°"		"70°"		"-70°"		"80°"		"-80°"		"90°"		"-90°"		"100°"		"-100°"		"110°"		"-110°"		"120°"		"-120°"		"130°"		"-130°"		"140°"		"-140°"		"150°"		"-150°"		"160°"		"-160°"		"170°"		"-170°"		"180°"	
"Frequency [Hz]"	"Sound Pessure Level [dB]  / [2.83V 1m] "	"Frequency [Hz]"	"Sound Pessure Level [dB]  / [2.83V 1m] "	"Frequency [Hz]"	"Sound Pessure Level [dB]  / [2.83V 1m] "	"Frequency [Hz]"	"Sound Pessure Level [dB]  / [2.83V 1m] "	"Frequency [Hz]"	"Sound Pessure Level [dB]  / [2.83V 1m] "	"Frequency [Hz]"	"Sound Pessure Level [dB]  / [2.83V 1m] "	"Frequency [Hz]"	"Sound Pessure Level [dB]  / [2.83V 1m] "	"Frequency [Hz]"	"Sound Pessure Level [dB]  / [2.83V 1m] "	"Frequency [Hz]"	"Sound Pessure Level [dB]  / [2.83V 1m] "	"Frequency [Hz]"	"Sound Pessure Level [dB]  / [2.83V 1m] "	"Frequency [Hz]"	"Sound Pessure Level [dB]  / [2.83V 1m] "	"Frequency [Hz]"	"Sound Pessure Level [dB]  / [2.83V 1m] "	"Frequency [Hz]"	"Sound Pessure Level [dB]  / [2.83V 1m] "	"Frequency [Hz]"	"Sound Pessure Level [dB]  / [2.83V 1m] "	"Frequency [Hz]"	"Sound Pessure Level [dB]  / [2.83V 1m] "	"Frequency [Hz]"	"Sound Pessure Level [dB]  / [2.83V 1m] "	"Frequency [Hz]"	"Sound Pessure Level [dB]  / [2.83V 1m] "	"Frequency [Hz]"	"Sound Pessure Level [dB]  / [2.83V 1m] "	"Frequency [Hz]"	"Sound Pessure Level [dB]  / [2.83V 1m] "	"Frequency [Hz]"	"Sound Pessure Level [dB]  / [2.83V 1m] "	"Frequency [Hz]"	"Sound Pessure Level [dB]  / [2.83V 1m] "	"Frequency [Hz]"	"Sound Pessure Level [dB]  / [2.83V 1m] "	"Frequency [Hz]"	"Sound Pessure Level [dB]  / [2.83V 1m] "	"Frequency [Hz]"	"Sound Pessure Level [dB]  / [2.83V 1m] "	"Frequency [Hz]"	"Sound Pessure Level [dB]  / [2.83V 1m] "	"Frequency [Hz]"	"Sound Pessure Level [dB]  / [2.83V 1m] "	"Frequency [Hz]"	"Sound Pessure Level [dB]  / [2.83V 1m] "	"Frequency [Hz]"	"Sound Pessure Level [dB]  / [2.83V 1m] "	"Frequency [Hz]"	"Sound Pessure Level [dB]  / [2.83V 1m] "	"Frequency [Hz]"	"Sound Pessure Level [dB]  / [2.83V 1m] "	"Frequency [Hz]"	"Sound Pessure Level [dB]  / [2.83V 1m] "	"Frequency [Hz]"	"Sound Pessure Level [dB]  / [2.83V 1m] "	"Frequency [Hz]"	"Sound Pessure Level [dB]  / [2.83V 1m] "	"Frequency [Hz]"	"Sound Pessure Level [dB]  / [2.83V 1m] "	"Frequency [Hz]"	"Sound Pessure Level [dB]  / [2.83V 1m] "	"Frequency [Hz]"	"Sound Pessure Level [dB]  / [2.83V 1m] "
20.5078	43.3236	20.5078	44.3056	20.5078	43.2541	20.5078	45.4904	20.5078	44.4436	20.5078	46.5136	20.5078	46.3171	20.5078	47.2757	20.5078	48.2348	20.5078	47.7699	20.5078	49.929	20.5078	48.0118	20.5078	51.3377	20.5078	48.0175	20.5078	52.4645	20.5078	47.7995	20.5078	53.328	20.5078	47.3697	20.5078	53.9465	20.5078	46.7503	20.5078	54.3356	20.5078	45.9982	20.5078	54.507	20.5078	45.2528	20.5078	54.4694	20.5078	44.7876	20.5078	54.2286	20.5078	44.9372	20.5078	53.7875	20.5078	45.806	20.5078	53.1463	20.5078	47.1438	20.5078	52.3039	20.5078	48.6182	20.5078	51.2596	20.5078	50.0207
21.9727	50.9313	21.9727	50.2906	21.9727	51.817	21.9727	49.9323	21.9727	52.8534	21.9727	49.816	21.9727	53.9365	21.9727	49.8524	21.9727	54.9833	21.9727	49.9503	21.9727	55.9386	21.9727	50.0451	21.9727	56.7692	21.9727	50.1051	21.9727	57.4568	21.9727	50.1276	21.9727	57.9916	21.9727	50.1353	21.9727	58.3696	21.9727	50.1731	21.9727	58.5901	21.9727	50.3014	21.9727	58.6545	21.9727	50.5815	21.9727	58.5664	21.9727	51.053	21.9727	58.3308	21.9727	51.7149	21.9727	57.9543	21.9727	52.5262	21.9727	57.4452	21.9727	53.4245	21.9727	56.8137	21.9727	54.3469	21.9727	56.0733	21.9727	55.2424
23.4375	53.5981	23.4375	53.6959	23.4375	53.7157	23.4375	53.9238	23.4375	54.0904	23.4375	54.1944	23.4375	54.6932	23.4375	54.4416	23.4375	55.439	23.4375	54.624	23.4375	56.229	23.4375	54.7193	23.4375	56.9809	23.4375	54.7188	23.4375	57.6383	23.4375	54.6231	23.4375	58.167	23.4375	54.4412	23.4375	58.5476	23.4375	54.1923	23.4375	58.7707	23.4375	53.9087	23.4375	58.8329	23.4375	53.6408	23.4375	58.7352	23.4375	53.457	23.4375	58.4822	23.4375	53.4338	23.4375	58.0821	23.4375	53.6304	23.4375	57.5482	23.4375	54.0592	23.4375	56.901	23.4375	54.6776	23.4375	56.1721	23.4375	55.4089
24.9023	54.228	24.9023	54.2544	24.9023	54.4426	24.9023	54.4382	24.9023	54.9256	24.9023	54.6842	24.9023	55.6285	24.9023	54.917	24.9023	56.4542	24.9023	55.088	24.9023	57.3022	24.9023	55.1709	24.9023	58.095	24.9023	55.1549	24.9023	58.7818	24.9023	55.0406	24.9023	59.3329	24.9023	54.8393	24.9023	59.732	24.9023	54.5752	24.9023	59.9711	24.9023	54.2901	24.9023	60.0476	24.9023	54.0474	24.9023	59.9621	24.9023	53.9299	24.9023	59.7183	24.9023	54.0199	24.9023	59.3223	24.9023	54.3643	24.9023	58.7845	24.9023	54.9475	24.9023	58.1205	24.9023	55.6991	24.9023	57.3554	24.9023	56.5286
26.3672	55.0797	26.3672	54.8129	26.3672	55.5915	26.3672	54.7543	26.3672	56.3207	26.3672	54.8255	26.3672	57.1892	26.3672	54.9441	26.3672	58.1051	26.3672	55.047	26.3672	58.9914	26.3672	55.0953	26.3672	59.7937	26.3672	55.072	26.3672	60.4778	26.3672	54.9779	26.3672	61.0234	26.3672	54.8308	26.3672	61.4194	26.3672	54.6675	26.3672	61.6602	26.3672	54.5449	26.3672	61.7439	26.3672	54.5365	26.3672	61.671	26.3672	54.7148	26.3672	61.4445	26.3672	55.1229	26.3672	61.0692	26.3672	55.7516	26.3672	60.5532	26.3672	56.5437	26.3672	59.908	26.3672	57.4206	26.3672	59.151	26.3672	58.3087
27.832	58.4108	27.832	58.2059	27.832	58.7723	27.832	58.1319	27.832	59.2847	27.832	58.1442	27.832	59.9109	27.832	58.1956	27.832	60.5959	27.832	58.248	27.832	61.2832	27.832	58.2757	27.832	61.9249	27.832	58.2666	27.832	62.4849	27.832	58.2205	27.832	62.9385	27.832	58.1483	27.832	63.27	27.832	58.0721	27.832	63.4701	27.832	58.0244	27.832	63.5348	27.832	58.0451	27.832	63.4638	27.832	58.1742	27.832	63.2607	27.832	58.441	27.832	62.9327	27.832	58.8524	27.832	62.4909	27.832	59.3897	27.832	61.9518	27.832	60.0144	27.832	61.3377	27.832	60.6789
29.2969	60.7568	29.2969	60.5736	29.2969	61.0569	29.2969	60.4879	29.2969	61.473	29.2969	60.4679	29.2969	61.9817	29.2969	60.4797	29.2969	62.5443	29.2969	60.4951	29.2969	63.1165	29.2969	60.4944	29.2969	63.6572	29.2969	60.4675	29.2969	64.1332	29.2969	60.4139	29.2969	64.5194	29.2969	60.3415	29.2969	64.799	29.2969	60.2673	29.2969	64.9614	29.2969	60.2162	29.2969	65.0014	29.2969	60.2189	29.2969	64.9185	29.2969	60.3075	29.2969	64.7161	29.2969	60.5073	29.2969	64.4019	29.2969	60.8291	29.2969	63.9881	29.2969	61.2642	29.2969	63.4924	29.2969	61.7862	29.2969	62.9388	29.2969	62.3577
30.7617	62.2833	30.7617	62.1392	30.7617	62.5296	30.7617	62.0776	30.7617	62.8813	30.7617	62.0696	30.7617	63.3221	30.7617	62.086	30.7617	63.8201	30.7617	62.1024	30.7617	64.336	30.7617	62.1022	30.7617	64.8309	30.7617	62.0767	30.7617	65.2719	30.7617	62.0257	30.7617	65.6331	30.7617	61.9561	30.7617	65.8967	30.7617	61.8826	30.7617	66.051	30.7617	61.8266	30.7617	66.0901	30.7617	61.8149	30.7617	66.0128	30.7617	61.8758	30.7617	65.8226	30.7617	62.0332	30.7617	65.5275	30.7617	62.2999	30.7617	65.1402	30.7617	62.6721	30.7617	64.6793	30.7617	63.1297	30.7617	64.1694	30.7617	63.641
32.2266	63.9688	32.2266	63.8062	32.2266	64.2177	32.2266	63.7158	32.2266	64.5539	32.2266	63.6755	32.2266	64.9633	32.2266	63.662	32.2266	65.4192	32.2266	63.6552	32.2266	65.8884	32.2266	63.6406	32.2266	66.3376	32.2266	63.6107	32.2266	66.7372	32.2266	63.5648	32.2266	67.0635	32.2266	63.5088	32.2266	67.2993	32.2266	63.4551	32.2266	67.4336	32.2266	63.4216	32.2266	67.4604	32.2266	63.4305	32.2266	67.3789	32.2266	63.5046	32.2266	67.1926	32.2266	63.6631	32.2266	66.9098	32.2266	63.9161	32.2266	66.5434	32.2266	64.2609	32.2266	66.1116	32.2266	64.6811	32.2266	65.6379	32.2266	65.1506
33.6914	65.5791	33.6914	65.4319	33.6914	65.7985	33.6914	65.3449	33.6914	66.0922	33.6914	65.3001	33.6914	66.4498	33.6914	65.2784	33.6914	66.8503	33.6914	65.2633	33.6914	67.2657	33.6914	65.243	33.6914	67.6666	33.6914	65.2113	33.6914	68.0258	33.6914	65.1674	33.6914	68.3207	33.6914	65.1164	33.6914	68.5341	33.6914	65.0685	33.6914	68.6546	33.6914	65.0386	33.6914	68.6758	33.6914	65.0451	33.6914	68.5965	33.6914	65.1072	33.6914	68.4202	33.6914	65.2418	33.6914	68.1551	33.6914	65.4587	33.6914	67.8144	33.6914	65.7577	33.6914	67.4164	33.6914	66.1267	33.6914	66.9841	33.6914	66.5447
35.1563	67.1049	35.1563	66.9677	35.1563	67.3031	35.1563	66.8815	35.1563	67.5641	35.1563	66.832	35.1563	67.8796	35.1563	66.8036	35.1563	68.2325	35.1563	66.7829	35.1563	68.5993	35.1563	66.7602	35.1563	68.9543	35.1563	66.73	35.1563	69.273	35.1563	66.6918	35.1563	69.5346	35.1563	66.6496	35.1563	69.7226	35.1563	66.6117	35.1563	69.8262	35.1563	66.5902	35.1563	69.8394	35.1563	66.5999	35.1563	69.761	35.1563	66.6567	35.1563	69.5947	35.1563	66.7742	35.1563	69.3492	35.1563	66.9613	35.1563	69.0377	35.1563	67.2187	35.1563	68.6778	35.1563	67.5383	35.1563	68.2916	35.1563	67.9034
36.6211	68.2434	36.6211	68.1111	36.6211	68.4312	36.6211	68.0253	36.6211	68.6761	36.6211	67.9731	36.6211	68.971	36.6211	67.9406	36.6211	69.3003	36.6211	67.9155	36.6211	69.6428	36.6211	67.8891	36.6211	69.9745	36.6211	67.8563	36.6211	70.2722	36.6211	67.8164	36.6211	70.5159	36.6211	67.7731	36.6211	70.6899	36.6211	67.7338	36.6211	70.7832	36.6211	67.7096	36.6211	70.7899	36.6211	67.7142	36.6211	70.709	36.6211	67.7623	36.6211	70.5442	36.6211	67.867	36.6211	70.304	36.6211	68.0372	36.6211	70.0018	36.6211	68.2747	36.6211	69.6551	36.6211	68.5729	36.6211	69.2855	36.6211	68.9168
38.0859	69.9319	38.0859	69.7917	38.0859	70.1185	38.0859	69.6919	38.0859	70.3517	38.0859	69.6228	38.0859	70.6251	38.0859	69.5739	38.0859	70.9251	38.0859	69.5356	38.0859	71.2337	38.0859	69.5006	38.0859	71.5302	38.0859	69.4647	38.0859	71.7945	38.0859	69.4272	38.0859	72.0086	38.0859	69.391	38.0859	72.1584	38.0859	69.3619	38.0859	72.2339	38.0859	69.3488	38.0859	72.2299	38.0859	69.3627	38.0859	72.1456	38.0859	69.4154	38.0859	71.9849	38.0859	69.5173	38.0859	71.7564	38.0859	69.6759	38.0859	71.4729	38.0859	69.8929	38.0859	71.1513	38.0859	70.1634	38.0859	70.8117	38.0859	70.4755
39.5508	71.3476	39.5508	71.2177	39.5508	71.5171	39.5508	71.1225	39.5508	71.7262	39.5508	71.0542	39.5508	71.9694	39.5508	71.0044	39.5508	72.2356	39.5508	70.9652	39.5508	72.5091	39.5508	70.9306	39.5508	72.772	39.5508	70.8971	39.5508	73.0062	39.5508	70.8641	39.5508	73.1954	39.5508	70.8337	39.5508	73.3265	39.5508	70.8108	39.5508	73.3902	39.5508	70.8025	39.5508	73.3815	39.5508	70.8178	39.5508	73.3	39.5508	70.8661	39.5508	73.1499	39.5508	70.9562	39.5508	72.9395	39.5508	71.0946	39.5508	72.6815	39.5508	71.2832	39.5508	72.3919	39.5508	71.5187	39.5508	72.089	39.5508	71.7921
41.0156	72.3778	41.0156	72.2131	41.0156	72.5786	41.0156	72.0818	41.0156	72.814	41.0156	71.978	41.0156	73.0778	41.0156	71.8949	41.0156	73.3585	41.0156	71.8259	41.0156	73.6413	41.0156	71.7659	41.0156	73.9091	41.0156	71.712	41.0156	74.1449	41.0156	71.6636	41.0156	74.3329	41.0156	71.6233	41.0156	74.46	41.0156	71.5958	41.0156	74.5168	41.0156	71.5884	41.0156	74.4977	41.0156	71.6101	41.0156	74.4016	41.0156	71.6704	41.0156	74.2324	41.0156	71.7778	41.0156	73.9984	41.0156	71.9384	41.0156	73.7126	41.0156	72.1538	41.0156	73.392	41.0156	72.4197	41.0156	73.0562	41.0156	72.7257
42.4805	73.8526	42.4805	73.7212	42.4805	74.0106	42.4805	73.6141	42.4805	74.1945	42.4805	73.5268	42.4805	74.3999	42.4805	73.4546	42.4805	74.6184	42.4805	73.3926	42.4805	74.8385	42.4805	73.3374	42.4805	75.0466	42.4805	73.2869	42.4805	75.2285	42.4805	73.2412	42.4805	75.371	42.4805	73.202	42.4805	75.4632	42.4805	73.1731	42.4805	75.4973	42.4805	73.1601	42.4805	75.469	42.4805	73.1697	42.4805	75.3783	42.4805	73.2091	42.4805	75.2294	42.4805	73.285	42.4805	75.0302	42.4805	73.4024	42.4805	74.7926	42.4805	73.5633	42.4805	74.5312	42.4805	73.7656	42.4805	74.2624	42.4805	74.0023
43.9453	74.8483	43.9453	74.7286	43.9453	74.9917	43.9453	74.6307	43.9453	75.1582	43.9453	74.5509	43.9453	75.3438	43.9453	74.4852	43.9453	75.5413	43.9453	74.4293	43.9453	75.7402	43.9453	74.3804	43.9453	75.9285	43.9453	74.3367	43.9453	76.0932	43.9453	74.298	43.9453	76.2223	43.9453	74.266	43.9453	76.3056	43.9453	74.2437	43.9453	76.336	43.9453	74.2357	43.9453	76.3097	43.9453	74.2476	43.9453	76.2267	43.9453	74.2853	43.9453	76.0912	43.9453	74.3547	43.9453	75.9108	43.9453	74.4599	43.9453	75.6967	43.9453	74.6028	43.9453	75.4623	43.9453	74.7818	43.9453	75.2225	43.9453	74.9915
45.4102	75.6728	45.4102	75.558	45.4102	75.809	45.4102	75.4629	45.4102	75.9655	45.4102	75.3846	45.4102	76.1388	45.4102	75.3197	45.4102	76.322	45.4102	75.2646	45.4102	76.5056	45.4102	75.2168	45.4102	76.6784	45.4102	75.1748	45.4102	76.8287	45.4102	75.1383	45.4102	76.9451	45.4102	75.1086	45.4102	77.0185	45.4102	75.0884	45.4102	77.0421	45.4102	75.0815	45.4102	77.0127	45.4102	75.0926	45.4102	76.9307	45.4102	75.1272	45.4102	76.8	45.4102	75.1902	45.4102	76.6284	45.4102	75.2857	45.4102	76.4266	45.4102	75.4157	45.4102	76.2075	45.4102	75.5791	45.4102	75.9847	45.4102	75.7715
46.875	76.4504	46.875	76.3356	46.875	76.5835	46.875	76.2382	46.875	76.7336	46.875	76.1561	46.875	76.897	46.875	76.0867	46.875	77.0674	46.875	76.0273	46.875	77.2362	46.875	75.9759	46.875	77.3932	46.875	75.9312	46.875	77.5276	46.875	75.8931	46.875	77.6292	46.875	75.8626	46.875	77.6895	46.875	75.8419	46.875	77.7026	46.875	75.8342	46.875	77.6656	46.875	75.8436	46.875	77.5794	46.875	75.8747	46.875	77.4483	46.875	75.9319	46.875	77.28	46.875	76.019	46.875	77.0851	46.875	76.1379	46.875	76.8761	46.875	76.2883	46.875	76.6659	46.875	76.4666
48.3398	77.2346	48.3398	77.1216	48.3398	77.3626	48.3398	77.0233	48.3398	77.504	48.3398	76.9383	48.3398	77.6554	48.3398	76.8647	48.3398	77.8111	48.3398	76.8008	48.3398	77.9634	48.3398	76.7449	48.3398	78.1031	48.3398	76.6962	48.3398	78.2206	48.3398	76.6548	48.3398	78.3071	48.3398	76.6216	48.3398	78.3547	48.3398	76.5986	48.3398	78.3583	48.3398	76.5886	48.3398	78.3157	48.3398	76.5952	48.3398	78.2277	48.3398	76.6224	48.3398	78.0987	48.3398	76.6743	48.3398	77.9363	48.3398	76.7541	48.3398	77.7504	48.3398	76.8638	48.3398	77.5526	48.3398	77.0031	48.3398	77.3551	48.3398	77.1689
51.2695	78.4899	51.2695	78.3842	51.2695	78.6064	51.2695	78.2897	51.2695	78.7317	51.2695	78.206	51.2695	78.8628	51.2695	78.1324	51.2695	78.9948	51.2695	78.068	51.2695	79.1213	51.2695	78.0121	51.2695	79.235	51.2695	77.9643	51.2695	79.328	51.2695	77.9247	51.2695	79.393	51.2695	77.894	51.2695	79.4239	51.2695	77.8736	51.2695	79.4166	51.2695	77.8652	51.2695	79.3694	51.2695	77.8715	51.2695	79.2839	51.2695	77.8953	51.2695	79.1644	51.2695	77.9394	51.2695	79.0179	51.2695	78.0066	51.2695	78.8537	51.2695	78.0983	51.2695	78.6817	51.2695	78.215	51.2695	78.5123	51.2695	78.3544
52.7344	79.2355	52.7344	79.1321	52.7344	79.3472	52.7344	79.0379	52.7344	79.4653	52.7344	78.9531	52.7344	79.5868	52.7344	78.8775	52.7344	79.7073	52.7344	78.8107	52.7344	79.8213	52.7344	78.7524	52.7344	79.922	52.7344	78.7028	52.7344	80.0028	52.7344	78.6619	52.7344	80.0572	52.7344	78.6305	52.7344	80.0797	52.7344	78.6098	52.7344	80.0668	52.7344	78.6014	52.7344	80.0174	52.7344	78.6072	52.7344	79.9329	52.7344	78.6297	52.7344	79.8177	52.7344	78.6713	52.7344	79.6784	52.7344	78.7342	52.7344	79.5235	52.7344	78.8197	52.7344	79.3625	52.7344	78.9281	52.7344	79.2045	52.7344	79.0576
54.1992	79.7394	54.1992	79.6416	54.1992	79.8441	54.1992	79.5518	54.1992	79.9539	54.1992	79.4705	54.1992	80.0657	54.1992	79.398	54.1992	80.1755	54.1992	79.3341	54.1992	80.2784	54.1992	79.2788	54.1992	80.3684	54.1992	79.2322	54.1992	80.4394	54.1992	79.1946	54.1992	80.4856	54.1992	79.1664	54.1992	80.5023	54.1992	79.1484	54.1992	80.4864	54.1992	79.1418	54.1992	80.4371	54.1992	79.1483	54.1992	80.356	54.1992	79.1695	54.1992	80.2475	54.1992	79.2074	54.1992	80.118	54.1992	79.264	54.1992	79.9754	54.1992	79.3405	54.1992	79.8285	54.1992	79.4374	54.1992	79.6855	54.1992	79.5534
55.6641	80.1605	55.6641	80.0633	55.6641	80.2623	55.6641	79.972	55.6641	80.3664	55.6641	79.8875	55.6641	80.4701	55.6641	79.8106	55.6641	80.5697	55.6641	79.7417	55.6641	80.6606	55.6641	79.6814	55.6641	80.7376	55.6641	79.6299	55.6641	80.7954	55.6641	79.5879	55.6641	80.829	55.6641	79.556	55.6641	80.8344	55.6641	79.5348	55.6641	80.8092	55.6641	79.5254	55.6641	80.7533	55.6641	79.529	55.6641	80.6686	55.6641	79.547	55.6641	80.5597	55.6641	79.5809	55.6641	80.4328	55.6641	79.6324	55.6641	80.2956	55.6641	79.7025	55.6641	80.1561	55.6641	79.7916	55.6641	80.0218	55.6641	79.8988
58.5938	80.9885	58.5938	80.8957	58.5938	81.0832	58.5938	80.8069	58.5938	81.1777	58.5938	80.7236	58.5938	81.2691	58.5938	80.6472	58.5938	81.3539	58.5938	80.5785	58.5938	81.4284	58.5938	80.5186	58.5938	81.4883	58.5938	80.4681	58.5938	81.5295	58.5938	80.4275	58.5938	81.5481	58.5938	80.3971	58.5938	81.5413	58.5938	80.3773	58.5938	81.5077	58.5938	80.3685	58.5938	81.4479	58.5938	80.3713	58.5938	81.3643	58.5938	80.3865	58.5938	81.2614	58.5938	80.415	58.5938	81.1453	58.5938	80.4578	58.5938	81.0227	58.5938	80.5161	58.5938	80.9005	58.5938	80.5903	58.5938	80.7848	58.5938	80.6804
60.0586	81.2202	60.0586	81.1277	60.0586	81.3128	60.0586	81.0377	60.0586	81.4033	60.0586	80.952	60.0586	81.4887	60.0586	80.8725	60.0586	81.566	60.0586	80.8005	60.0586	81.6317	60.0586	80.7372	60.0586	81.682	60.0586	80.6838	60.0586	81.7134	60.0586	80.6407	60.0586	81.7227	60.0586	80.6085	60.0586	81.7077	60.0586	80.5874	60.0586	81.6675	60.0586	80.5776	60.0586	81.6031	60.0586	80.5793	60.0586	81.5173	60.0586	80.593	60.0586	81.4148	60.0586	80.6191	60.0586	81.3014	60.0586	80.6585	60.0586	81.1837	60.0586	80.7119	60.0586	81.068	60.0586	80.7801	60.0586	80.9598	60.0586	80.8631
62.9883	81.8303	62.9883	81.7406	62.9883	81.918	62.9883	81.6515	62.9883	82.0012	62.9883	81.5653	62.9883	82.0771	62.9883	81.4844	62.9883	82.1429	62.9883	81.4105	62.9883	82.1959	62.9883	81.3456	62.9883	82.233	62.9883	81.2907	62.9883	82.2515	62.9883	81.2467	62.9883	82.2493	62.9883	81.2141	62.9883	82.225	62.9883	81.1929	62.9883	82.1786	62.9883	81.183	62.9883	82.1114	62.9883	81.1842	62.9883	82.0265	62.9883	81.1963	62.9883	81.9286	62.9883	81.2195	62.9883	81.8231	62.9883	81.2542	62.9883	81.7159	62.9883	81.3008	62.9883	81.6123	62.9883	81.3601	62.9883	81.5168	62.9883	81.4322
64.4531	82.143	64.4531	82.0556	64.4531	82.2275	64.4531	81.9677	64.4531	82.3062	64.4531	81.882	64.4531	82.3765	64.4531	81.801	64.4531	82.4359	64.4531	81.7268	64.4531	82.4817	64.4531	81.6614	64.4531	82.5113	64.4531	81.606	64.4531	82.5226	64.4531	81.5616	64.4531	82.5138	64.4531	81.5285	64.4531	82.4841	64.4531	81.5069	64.4531	82.4338	64.4531	81.4963	64.4531	82.3647	64.4531	81.4964	64.4531	82.28	64.4531	81.5069	64.4531	82.1843	64.4531	81.5275	64.4531	82.083	64.4531	81.5586	64.4531	81.9816	64.4531	81.6005	64.4531	81.8849	64.4531	81.6539	64.4531	81.7966	64.4531	81.7193
67.3828	82.5892	67.3828	82.5047	67.3828	82.6687	67.3828	82.4182	67.3828	82.7403	67.3828	82.3326	67.3828	82.8016	67.3828	82.2508	67.3828	82.8501	67.3828	82.1755	67.3828	82.8838	67.3828	82.1088	67.3828	82.9008	67.3828	82.0524	67.3828	82.8997	67.3828	82.0074	67.3828	82.8798	67.3828	81.9742	67.3828	82.8409	67.3828	81.9524	67.3828	82.7844	67.3828	81.9416	67.3828	82.7124	67.3828	81.941	67.3828	82.6286	67.3828	81.9497	67.3828	82.5374	67.3828	81.9671	67.3828	82.4439	67.3828	81.9932	67.3828	82.3528	67.3828	82.0281	67.3828	82.268	67.3828	82.0725	67.3828	82.1923	67.3828	82.127
68.8477	82.8073	68.8477	82.723	68.8477	82.8855	68.8477	82.6359	68.8477	82.955	68.8477	82.549	68.8477	83.0131	68.8477	82.4656	68.8477	83.0575	68.8477	82.3885	68.8477	83.0865	68.8477	82.3201	68.8477	83.0984	68.8477	82.2623	68.8477	83.0922	68.8477	82.2161	68.8477	83.0676	68.8477	82.1821	68.8477	83.0249	68.8477	82.1599	68.8477	82.9656	68.8477	82.149	68.8477	82.8922	68.8477	82.1483	68.8477	82.8084	68.8477	82.1569	68.8477	82.7186	68.8477	82.1739	68.8477	82.6276	68.8477	82.199	68.8477	82.5399	68.8477	82.2323	68.8477	82.459	68.8477	82.2742	68.8477	82.3873	68.8477	82.3257
