"SPL Horizontal"																																																																							
"On-Axis"		"10°"		"-10°"		"20°"		"-20°"		"30°"		"-30°"		"40°"		"-40°"		"50°"		"-50°"		"60°"		"-60°"		"70°"		"-70°"		"80°"		"-80°"		"90°"		"-90°"		"100°"		"-100°"		"110°"		"-110°"		"120°"		"-120°"		"130°"		"-130°"		"140°"		"-140°"		"150°"		"-150°"		"160°"		"-160°"		"170°"		"-170°"		"180°"	
"Frequency [Hz]"	"Sound Pessure Level [dB]  / [2.83V 1m] "	"Frequency [Hz]"	"Sound Pessure Level [dB]  / [2.83V 1m] "	"Frequency [Hz]"	"Sound Pessure Level [dB]  / [2.83V 1m] "	"Frequency [Hz]"	"Sound Pessure Level [dB]  / [2.83V 1m] "	"Frequency [Hz]"	"Sound Pessure Level [dB]  / [2.83V 1m] "	"Frequency [Hz]"	"Sound Pessure Level [dB]  / [2.83V 1m] "	"Frequency [Hz]"	"Sound Pessure Level [dB]  / [2.83V 1m] "	"Frequency [Hz]"	"Sound Pessure Level [dB]  / [2.83V 1m] "	"Frequency [Hz]"	"Sound Pessure Level [dB]  / [2.83V 1m] "	"Frequency [Hz]"	"Sound Pessure Level [dB]  / [2.83V 1m] "	"Frequency [Hz]"	"Sound Pessure Level [dB]  / [2.83V 1m] "	"Frequency [Hz]"	"Sound Pessure Level [dB]  / [2.83V 1m] "	"Frequency [Hz]"	"Sound Pessure Level [dB]  / [2.83V 1m] "	"Frequency [Hz]"	"Sound Pessure Level [dB]  / [2.83V 1m] "	"Frequency [Hz]"	"Sound Pessure Level [dB]  / [2.83V 1m] "	"Frequency [Hz]"	"Sound Pessure Level [dB]  / [2.83V 1m] "	"Frequency [Hz]"	"Sound Pessure Level [dB]  / [2.83V 1m] "	"Frequency [Hz]"	"Sound Pessure Level [dB]  / [2.83V 1m] "	"Frequency [Hz]"	"Sound Pessure Level [dB]  / [2.83V 1m] "	"Frequency [Hz]"	"Sound Pessure Level [dB]  / [2.83V 1m] "	"Frequency [Hz]"	"Sound Pessure Level [dB]  / [2.83V 1m] "	"Frequency [Hz]"	"Sound Pessure Level [dB]  / [2.83V 1m] "	"Frequency [Hz]"	"Sound Pessure Level [dB]  / [2.83V 1m] "	"Frequency [Hz]"	"Sound Pessure Level [dB]  / [2.83V 1m] "	"Frequency [Hz]"	"Sound Pessure Level [dB]  / [2.83V 1m] "	"Frequency [Hz]"	"Sound Pessure Level [dB]  / [2.83V 1m] "	"Frequency [Hz]"	"Sound Pessure Level [dB]  / [2.83V 1m] "	"Frequency [Hz]"	"Sound Pessure Level [dB]  / [2.83V 1m] "	"Frequency [Hz]"	"Sound Pessure Level [dB]  / [2.83V 1m] "	"Frequency [Hz]"	"Sound Pessure Level [dB]  / [2.83V 1m] "	"Frequency [Hz]"	"Sound Pessure Level [dB]  / [2.83V 1m] "	"Frequency [Hz]"	"Sound Pessure Level [dB]  / [2.83V 1m] "	"Frequency [Hz]"	"Sound Pessure Level [dB]  / [2.83V 1m] "	"Frequency [Hz]"	"Sound Pessure Level [dB]  / [2.83V 1m] "	"Frequency [Hz]"	"Sound Pessure Level [dB]  / [2.83V 1m] "	"Frequency [Hz]"	"Sound Pessure Level [dB]  / [2.83V 1m] "
20.5078	47.2624	20.5078	47.2713	20.5078	47.2443	20.5078	47.2707	20.5078	47.2173	20.5078	47.2607	20.5078	47.1818	20.5078	47.2411	20.5078	47.1383	20.5078	47.2122	20.5078	47.0875	20.5078	47.1745	20.5078	47.0305	20.5078	47.1286	20.5078	46.9685	20.5078	47.0755	20.5078	46.9032	20.5078	47.0166	20.5078	46.8365	20.5078	46.9535	20.5078	46.7707	20.5078	46.8881	20.5078	46.7082	20.5078	46.8223	20.5078	46.6513	20.5078	46.7582	20.5078	46.6024	20.5078	46.6977	20.5078	46.5635	20.5078	46.643	20.5078	46.5363	20.5078	46.5962	20.5078	46.522	20.5078	46.5592	20.5078	46.5212	20.5078	46.5338
21.9727	49.7648	21.9727	49.7691	21.9727	49.7548	21.9727	49.7676	21.9727	49.7393	21.9727	49.76	21.9727	49.7184	21.9727	49.7462	21.9727	49.692	21.9727	49.726	21.9727	49.6602	21.9727	49.6996	21.9727	49.6228	21.9727	49.6672	21.9727	49.58	21.9727	49.6291	21.9727	49.5321	21.9727	49.5858	21.9727	49.4799	21.9727	49.5378	21.9727	49.4246	21.9727	49.4861	21.9727	49.3682	21.9727	49.4317	21.9727	49.313	21.9727	49.3761	21.9727	49.2621	21.9727	49.3215	21.9727	49.2184	21.9727	49.2703	21.9727	49.1851	21.9727	49.2256	21.9727	49.1646	21.9727	49.1904	21.9727	49.1586	21.9727	49.1674
23.4375	52.4758	23.4375	52.4843	23.4375	52.4606	23.4375	52.4856	23.4375	52.439	23.4375	52.4798	23.4375	52.4113	23.4375	52.4668	23.4375	52.3782	23.4375	52.4468	23.4375	52.3402	23.4375	52.4199	23.4375	52.2981	23.4375	52.3866	23.4375	52.2528	23.4375	52.3475	23.4375	52.2052	23.4375	52.3034	23.4375	52.1565	23.4375	52.2552	23.4375	52.1078	23.4375	52.2042	23.4375	52.0606	23.4375	52.1518	23.4375	52.0166	23.4375	52.0996	23.4375	51.9774	23.4375	52.0497	23.4375	51.9449	23.4375	52.0041	23.4375	51.9209	23.4375	51.9649	23.4375	51.9072	23.4375	51.9343	23.4375	51.9047	23.4375	51.9138
24.9023	54.2544	24.9023	54.255	24.9023	54.2473	24.9023	54.2491	24.9023	54.2339	24.9023	54.2369	24.9023	54.2144	24.9023	54.2184	24.9023	54.1892	24.9023	54.1943	24.9023	54.1589	24.9023	54.1648	24.9023	54.1241	24.9023	54.1307	24.9023	54.0858	24.9023	54.0929	24.9023	54.0449	24.9023	54.0522	24.9023	54.0026	24.9023	54.0097	24.9023	53.9602	24.9023	53.9666	24.9023	53.919	24.9023	53.9244	24.9023	53.8803	24.9023	53.8843	24.9023	53.8455	24.9023	53.848	24.9023	53.8158	24.9023	53.8169	24.9023	53.7922	24.9023	53.7924	24.9023	53.7757	24.9023	53.7755	24.9023	53.7672	24.9023	53.767
26.3672	56.3697	26.3672	56.3696	26.3672	56.3635	26.3672	56.3631	26.3672	56.351	26.3672	56.3502	26.3672	56.3325	26.3672	56.3313	26.3672	56.3084	26.3672	56.3066	26.3672	56.2793	26.3672	56.2766	26.3672	56.2457	26.3672	56.2419	26.3672	56.2086	26.3672	56.2034	26.3672	56.1687	26.3672	56.162	26.3672	56.1273	26.3672	56.119	26.3672	56.0854	26.3672	56.0757	26.3672	56.0443	26.3672	56.0336	26.3672	56.0053	26.3672	55.9941	26.3672	55.9696	26.3672	55.9588	26.3672	55.9386	26.3672	55.929	26.3672	55.9136	26.3672	55.906	26.3672	55.8955	26.3672	55.8907	26.3672	55.8854	26.3672	55.8837
27.832	58.1525	27.832	58.151	27.832	58.1476	27.832	58.1431	27.832	58.1365	27.832	58.1289	27.832	58.1194	27.832	58.1085	27.832	58.0968	27.832	58.0825	27.832	58.0692	27.832	58.0513	27.832	58.0373	27.832	58.0156	27.832	58.0016	27.832	57.9762	27.832	57.963	27.832	57.9343	27.832	57.9225	27.832	57.891	27.832	57.881	27.832	57.8475	27.832	57.8396	27.832	57.8054	27.832	57.7994	27.832	57.7661	27.832	57.7619	27.832	57.7311	27.832	57.7284	27.832	57.7019	27.832	57.7003	27.832	57.68	27.832	57.6791	27.832	57.6663	27.832	57.6659	27.832	57.6615
29.2969	59.8791	29.2969	59.8778	29.2969	59.8729	29.2969	59.8691	29.2969	59.8596	29.2969	59.853	29.2969	59.8394	29.2969	59.83	29.2969	59.8128	29.2969	59.8005	29.2969	59.7806	29.2969	59.7652	29.2969	59.7436	29.2969	59.725	29.2969	59.7027	29.2969	59.6811	29.2969	59.6591	29.2969	59.6347	29.2969	59.6139	29.2969	59.5871	29.2969	59.5684	29.2969	59.5401	29.2969	59.524	29.2969	59.495	29.2969	59.4819	29.2969	59.4536	29.2969	59.4435	29.2969	59.4173	29.2969	59.41	29.2969	59.3875	29.2969	59.3826	29.2969	59.3652	29.2969	59.3623	29.2969	59.3513	29.2969	59.35	29.2969	59.3462
30.7617	61.6049	30.7617	61.6033	30.7617	61.5992	30.7617	61.5945	30.7617	61.5865	30.7617	61.5787	30.7617	61.5671	30.7617	61.5563	30.7617	61.5415	30.7617	61.5278	30.7617	61.5106	30.7617	61.494	30.7617	61.4751	30.7617	61.4559	30.7617	61.4362	30.7617	61.4145	30.7617	61.395	30.7617	61.3712	30.7617	61.3527	30.7617	61.3273	30.7617	61.3106	30.7617	61.2842	30.7617	61.2699	30.7617	61.2433	30.7617	61.2318	30.7617	61.2062	30.7617	61.1973	30.7617	61.1739	30.7617	61.1676	30.7617	61.1476	30.7617	61.1434	30.7617	61.1282	30.7617	61.1257	30.7617	61.1161	30.7617	61.1149	30.7617	61.1116
32.2266	63.0774	32.2266	63.0762	32.2266	63.07	32.2266	63.0666	32.2266	63.0544	32.2266	63.0489	32.2266	63.0308	32.2266	63.0234	32.2266	62.9999	32.2266	62.991	32.2266	62.9625	32.2266	62.9525	32.2266	62.9197	32.2266	62.909	32.2266	62.8728	32.2266	62.8619	32.2266	62.823	32.2266	62.8125	32.2266	62.7721	32.2266	62.7623	32.2266	62.7215	32.2266	62.7128	32.2266	62.6729	32.2266	62.6655	32.2266	62.6277	32.2266	62.6218	32.2266	62.5876	32.2266	62.5831	32.2266	62.5537	32.2266	62.5506	32.2266	62.5272	32.2266	62.5252	32.2266	62.509	32.2266	62.5079	32.2266	62.4996	32.2266	62.4992
33.6914	64.5045	33.6914	64.5013	33.6914	64.4994	33.6914	64.4897	33.6914	64.486	33.6914	64.47	33.6914	64.4648	33.6914	64.4427	33.6914	64.4362	33.6914	64.4085	33.6914	64.4011	33.6914	64.3682	33.6914	64.3604	33.6914	64.323	33.6914	64.3152	33.6914	64.274	33.6914	64.2668	33.6914	64.2229	33.6914	64.2168	33.6914	64.1712	33.6914	64.1664	33.6914	64.1205	33.6914	64.1173	33.6914	64.0726	33.6914	64.071	33.6914	64.0293	33.6914	64.0289	33.6914	63.9918	33.6914	63.9924	33.6914	63.9615	33.6914	63.9625	33.6914	63.9394	33.6914	63.9403	33.6914	63.926	33.6914	63.9266	33.6914	63.9217
35.1563	65.9146	35.1563	65.9135	35.1563	65.9071	35.1563	65.9037	35.1563	65.891	35.1563	65.8855	35.1563	65.8668	35.1563	65.8593	35.1563	65.8352	35.1563	65.8257	35.1563	65.7969	35.1563	65.7857	35.1563	65.7529	35.1563	65.7402	35.1563	65.7045	35.1563	65.6904	35.1563	65.6531	35.1563	65.6379	35.1563	65.6002	35.1563	65.5841	35.1563	65.5473	35.1563	65.5308	35.1563	65.4961	35.1563	65.4796	35.1563	65.4483	35.1563	65.4325	35.1563	65.4053	35.1563	65.3909	35.1563	65.3686	35.1563	65.3563	35.1563	65.3393	35.1563	65.3299	35.1563	65.3185	35.1563	65.3126	35.1563	65.3069	35.1563	65.3048
36.6211	67.0886	36.6211	67.0864	36.6211	67.0818	36.6211	67.0753	36.6211	67.0663	36.6211	67.0556	36.6211	67.0424	36.6211	67.0279	36.6211	67.0107	36.6211	66.9928	36.6211	66.9722	36.6211	66.9514	36.6211	66.9278	36.6211	66.9048	36.6211	66.8788	36.6211	66.8543	36.6211	66.8266	36.6211	66.8015	36.6211	66.7727	36.6211	66.7479	36.6211	66.7189	36.6211	66.6952	36.6211	66.6667	36.6211	66.6449	36.6211	66.6179	36.6211	66.5987	36.6211	66.5741	36.6211	66.5579	36.6211	66.5366	36.6211	66.5239	36.6211	66.5069	36.6211	66.4978	36.6211	66.4858	36.6211	66.4804	36.6211	66.4743	36.6211	66.4725
38.0859	68.1695	38.0859	68.1652	38.0859	68.1646	38.0859	68.152	38.0859	68.1506	38.0859	68.13	38.0859	68.1281	38.0859	68.1	38.0859	68.0975	38.0859	68.0628	38.0859	68.0598	38.0859	68.0195	38.0859	68.016	38.0859	67.9714	38.0859	67.9675	38.0859	67.9199	38.0859	67.9156	38.0859	67.8667	38.0859	67.8621	38.0859	67.8135	38.0859	67.8085	38.0859	67.7618	38.0859	67.7565	38.0859	67.7133	38.0859	67.7078	38.0859	67.6695	38.0859	67.664	38.0859	67.6316	38.0859	67.6265	38.0859	67.6008	38.0859	67.5963	38.0859	67.5777	38.0859	67.5745	38.0859	67.5633	38.0859	67.5615	38.0859	67.5578
39.5508	69.2159	39.5508	69.2139	39.5508	69.208	39.5508	69.2021	39.5508	69.1904	39.5508	69.181	39.5508	69.1635	39.5508	69.1512	39.5508	69.1279	39.5508	69.1135	39.5508	69.0845	39.5508	69.0691	39.5508	69.0346	39.5508	69.0193	39.5508	68.9795	39.5508	68.9655	39.5508	68.9209	39.5508	68.9094	39.5508	68.8606	39.5508	68.8526	39.5508	68.8007	39.5508	68.7967	39.5508	68.7432	39.5508	68.7434	39.5508	68.6901	39.5508	68.694	39.5508	68.6434	39.5508	68.6499	39.5508	68.6047	39.5508	68.6124	39.5508	68.5753	39.5508	68.5824	39.5508	68.556	39.5508	68.5611	39.5508	68.5473	39.5508	68.5492
41.0156	70.0928	41.0156	70.0929	41.0156	70.0827	41.0156	70.0832	41.0156	70.0629	41.0156	70.064	41.0156	70.0338	41.0156	70.0361	41.0156	69.996	41.0156	70.0003	41.0156	69.9507	41.0156	69.9578	41.0156	69.8992	41.0156	69.91	41.0156	69.8429	41.0156	69.8583	41.0156	69.7838	41.0156	69.8043	41.0156	69.7237	41.0156	69.7496	41.0156	69.665	41.0156	69.6958	41.0156	69.6097	41.0156	69.6444	41.0156	69.56	41.0156	69.5967	41.0156	69.5177	41.0156	69.5538	41.0156	69.4842	41.0156	69.5168	41.0156	69.4605	41.0156	69.4865	41.0156	69.4469	41.0156	69.4637	41.0156	69.4432	41.0156	69.449
42.4805	71.0087	42.4805	70.9986	42.4805	71.0089	42.4805	70.979	42.4805	70.9991	42.4805	70.9503	42.4805	70.9796	42.4805	70.9135	42.4805	70.9509	42.4805	70.8697	42.4805	70.9138	42.4805	70.8204	42.4805	70.8694	42.4805	70.7671	42.4805	70.8189	42.4805	70.7115	42.4805	70.7639	42.4805	70.6554	42.4805	70.706	42.4805	70.6006	42.4805	70.6472	42.4805	70.5487	42.4805	70.5894	42.4805	70.501	42.4805	70.5347	42.4805	70.4588	42.4805	70.485	42.4805	70.4231	42.4805	70.442	42.4805	70.3946	42.4805	70.4071	42.4805	70.374	42.4805	70.3813	42.4805	70.3619	42.4805	70.3652	42.4805	70.3588
43.9453	71.8195	43.9453	71.8151	43.9453	71.814	43.9453	71.8009	43.9453	71.7988	43.9453	71.7774	43.9453	71.7744	43.9453	71.7451	43.9453	71.7416	43.9453	71.7051	43.9453	71.7014	43.9453	71.6585	43.9453	71.6549	43.9453	71.6068	43.9453	71.6036	43.9453	71.5516	43.9453	71.5491	43.9453	71.4946	43.9453	71.493	43.9453	71.4378	43.9453	71.4371	43.9453	71.3828	43.9453	71.383	43.9453	71.3314	43.9453	71.3324	43.9453	71.2852	43.9453	71.2866	43.9453	71.2456	43.9453	71.2471	43.9453	71.2138	43.9453	71.2151	43.9453	71.1904	43.9453	71.1915	43.9453	71.1763	43.9453	71.1769	43.9453	71.1718
45.4102	72.5298	45.4102	72.5287	45.4102	72.5198	45.4102	72.5165	45.4102	72.499	45.4102	72.4935	45.4102	72.468	45.4102	72.4604	45.4102	72.4278	45.4102	72.4183	45.4102	72.3798	45.4102	72.3686	45.4102	72.3254	45.4102	72.3127	45.4102	72.2664	45.4102	72.2526	45.4102	72.2047	45.4102	72.1901	45.4102	72.1423	45.4102	72.1275	45.4102	72.0812	45.4102	72.0667	45.4102	72.0232	45.4102	72.0095	45.4102	71.97	45.4102	71.9578	45.4102	71.9232	45.4102	71.9129	45.4102	71.8841	45.4102	71.8759	45.4102	71.8537	45.4102	71.8478	45.4102	71.8326	45.4102	71.8291	45.4102	71.8214	45.4102	71.8202
46.875	73.2217	46.875	73.2213	46.875	73.2102	46.875	73.2091	46.875	73.187	46.875	73.1853	46.875	73.1527	46.875	73.1508	46.875	73.1082	46.875	73.1065	46.875	73.0547	46.875	73.0537	46.875	72.9937	46.875	72.9939	46.875	72.9272	46.875	72.929	46.875	72.8571	46.875	72.8608	46.875	72.7858	46.875	72.7916	46.875	72.7155	46.875	72.7232	46.875	72.6485	46.875	72.6579	46.875	72.5871	46.875	72.5976	46.875	72.5333	46.875	72.544	46.875	72.4887	46.875	72.4987	46.875	72.4548	46.875	72.4629	46.875	72.4325	46.875	72.4377	46.875	72.4221	46.875	72.424
48.3398	73.735	48.3398	73.7336	48.3398	73.7247	48.3398	73.7204	48.3398	73.7028	48.3398	73.696	48.3398	73.6699	48.3398	73.6609	48.3398	73.6268	48.3398	73.6161	48.3398	73.5746	48.3398	73.5629	48.3398	73.5148	48.3398	73.5028	48.3398	73.4491	48.3398	73.4374	48.3398	73.3793	48.3398	73.3686	48.3398	73.3076	48.3398	73.2985	48.3398	73.2363	48.3398	73.2292	48.3398	73.1677	48.3398	73.1626	48.3398	73.1041	48.3398	73.101	48.3398	73.0475	48.3398	73.0462	48.3398	72.9999	48.3398	72.9998	48.3398	72.963	48.3398	72.9635	48.3398	72.9378	48.3398	72.9384	48.3398	72.9252	48.3398	72.9255
51.2695	74.7308	51.2695	74.7272	51.2695	74.7239	51.2695	74.7133	51.2695	74.7069	51.2695	74.6895	51.2695	74.6801	51.2695	74.6568	51.2695	74.6446	51.2695	74.6162	51.2695	74.6015	51.2695	74.5692	51.2695	74.5523	51.2695	74.5174	51.2695	74.4986	51.2695	74.4626	51.2695	74.4424	51.2695	74.4067	51.2695	74.3855	51.2695	74.3516	51.2695	74.3297	51.2695	74.2989	51.2695	74.2771	51.2695	74.2502	51.2695	74.229	51.2695	74.2067	51.2695	74.1871	51.2695	74.1695	51.2695	74.1523	51.2695	74.1393	51.2695	74.1253	51.2695	74.1165	51.2695	74.1067	51.2695	74.1017	51.2695	74.0966	51.2695	74.095
52.7344	75.1709	52.7344	75.1669	52.7344	75.1641	52.7344	75.1524	52.7344	75.1469	52.7344	75.1279	52.7344	75.1199	52.7344	75.0942	52.7344	75.0841	52.7344	75.0527	52.7344	75.0407	52.7344	75.005	52.7344	74.9913	52.7344	74.9527	52.7344	74.9378	52.7344	74.8978	52.7344	74.882	52.7344	74.8424	52.7344	74.826	52.7344	74.7883	52.7344	74.7715	52.7344	74.7374	52.7344	74.7206	52.7344	74.6909	52.7344	74.6746	52.7344	74.6501	52.7344	74.6349	52.7344	74.6157	52.7344	74.6022	52.7344	74.5882	52.7344	74.5772	52.7344	74.5678	52.7344	74.5599	52.7344	74.5546	52.7344	74.5506	52.7344	74.5488
54.1992	75.4794	54.1992	75.478	54.1992	75.4703	54.1992	75.4663	54.1992	75.4511	54.1992	75.4447	54.1992	75.4225	54.1992	75.414	54.1992	75.3857	54.1992	75.3755	54.1992	75.3419	54.1992	75.3306	54.1992	75.293	54.1992	75.2812	54.1992	75.2406	54.1992	75.2292	54.1992	75.1868	54.1992	75.1765	54.1992	75.1334	54.1992	75.125	54.1992	75.0824	54.1992	75.0763	54.1992	75.0353	54.1992	75.032	54.1992	74.9935	54.1992	74.9929	54.1992	74.9582	54.1992	74.9597	54.1992	74.9299	54.1992	74.9327	54.1992	74.9091	54.1992	74.9122	54.1992	74.8957	54.1992	74.898	54.1992	74.8896	54.1992	74.8904
55.6641	75.7807	55.6641	75.7853	55.6641	75.7635	55.6641	75.7774	55.6641	75.7344	55.6641	75.7574	55.6641	75.6943	55.6641	75.7262	55.6641	75.6445	55.6641	75.6851	55.6641	75.5871	55.6641	75.6358	55.6641	75.5242	55.6641	75.5804	55.6641	75.4583	55.6641	75.521	55.6641	75.392	55.6641	75.4599	55.6641	75.328	55.6641	75.3993	55.6641	75.2688	55.6641	75.3414	55.6641	75.2164	55.6641	75.2877	55.6641	75.1723	55.6641	75.2397	55.6641	75.1375	55.6641	75.198	55.6641	75.1123	55.6641	75.163	55.6641	75.0965	55.6641	75.1347	55.6641	75.0893	55.6641	75.1132	55.6641	75.0902	55.6641	75.0983
58.5938	76.4521	58.5938	76.4421	58.5938	76.4488	58.5938	76.419	58.5938	76.4321	58.5938	76.3837	58.5938	76.4025	58.5938	76.3374	58.5938	76.361	58.5938	76.2816	58.5938	76.3089	58.5938	76.2182	58.5938	76.2477	58.5938	76.1494	58.5938	76.1797	58.5938	76.0776	58.5938	76.1069	58.5938	76.0051	58.5938	76.032	58.5938	75.9343	58.5938	75.9574	58.5938	75.8672	58.5938	75.8857	58.5938	75.8058	58.5938	75.8192	58.5938	75.7515	58.5938	75.76	58.5938	75.7055	58.5938	75.7099	58.5938	75.6686	58.5938	75.6701	58.5938	75.6415	58.5938	75.6415	58.5938	75.6248	58.5938	75.6245	58.5938	75.619
60.0586	76.6344	60.0586	76.6252	60.0586	76.6305	60.0586	76.6032	60.0586	76.6134	60.0586	76.5689	60.0586	76.5839	60.0586	76.5236	60.0586	76.5429	60.0586	76.4687	60.0586	76.4916	60.0586	76.406	60.0586	76.4319	60.0586	76.3376	60.0586	76.3657	60.0586	76.2658	60.0586	76.2952	60.0586	76.193	60.0586	76.2229	60.0586	76.1216	60.0586	76.151	60.0586	76.0538	60.0586	76.082	60.0586	75.9917	60.0586	76.0178	60.0586	75.9371	60.0586	75.9603	60.0586	75.8913	60.0586	75.9108	60.0586	75.8554	60.0586	75.8706	60.0586	75.8301	60.0586	75.8405	60.0586	75.8158	60.0586	75.8212	60.0586	75.8129
62.9883	77.1212	62.9883	77.1161	62.9883	77.114	62.9883	77.0987	62.9883	77.0946	62.9883	77.0699	62.9883	77.0638	62.9883	77.0306	62.9883	77.0226	62.9883	76.9822	62.9883	76.9724	62.9883	76.9267	62.9883	76.915	62.9883	76.8659	62.9883	76.8525	62.9883	76.8021	62.9883	76.7872	62.9883	76.7375	62.9883	76.7212	62.9883	76.6743	62.9883	76.6569	62.9883	76.6145	62.9883	76.5965	62.9883	76.5597	62.9883	76.5417	62.9883	76.5113	62.9883	76.494	62.9883	76.4703	62.9883	76.4547	62.9883	76.4373	62.9883	76.4245	62.9883	76.4127	62.9883	76.4035	62.9883	76.3968	62.9883	76.392	62.9883	76.3899
64.4531	77.3376	64.4531	77.3322	64.4531	77.3307	64.4531	77.3148	64.4531	77.3117	64.4531	77.2859	64.4531	77.2814	64.4531	77.2467	64.4531	77.241	64.4531	77.1989	64.4531	77.192	64.4531	77.1442	64.4531	77.1362	64.4531	77.0848	64.4531	77.0758	64.4531	77.0229	64.4531	77.0131	64.4531	76.961	64.4531	76.9504	64.4531	76.9011	64.4531	76.8897	64.4531	76.8451	64.4531	76.8333	64.4531	76.7945	64.4531	76.7826	64.4531	76.7505	64.4531	76.7389	64.4531	76.7138	64.4531	76.7032	64.4531	76.6847	64.4531	76.6758	64.4531	76.6634	64.4531	76.6569	64.4531	76.6498	64.4531	76.6464	64.4531	76.6441
67.3828	77.6804	67.3828	77.6737	67.3828	77.6743	67.3828	77.6545	67.3828	77.6556	67.3828	77.6236	67.3828	77.6252	67.3828	77.5824	67.3828	77.5843	67.3828	77.5326	67.3828	77.5346	67.3828	77.4764	67.3828	77.4783	67.3828	77.4162	67.3828	77.4177	67.3828	77.3545	67.3828	77.3553	67.3828	77.2938	67.3828	77.2936	67.3828	77.2362	67.3828	77.2349	67.3828	77.1838	67.3828	77.1812	67.3828	77.1377	67.3828	77.134	67.3828	77.0988	67.3828	77.0943	67.3828	77.0673	67.3828	77.0625	67.3828	77.0432	67.3828	77.0388	67.3828	77.0261	67.3828	77.0226	67.3828	77.0155	67.3828	77.0137	67.3828	77.0114
68.8477	77.7704	68.8477	77.7616	68.8477	77.766	68.8477	77.7399	68.8477	77.7486	68.8477	77.7062	68.8477	77.7191	68.8477	77.6621	68.8477	77.6786	68.8477	77.6094	68.8477	77.6289	68.8477	77.5505	68.8477	77.5723	68.8477	77.4879	68.8477	77.5111	68.8477	77.4243	68.8477	77.448	68.8477	77.3623	68.8477	77.3854	68.8477	77.3043	68.8477	77.3259	68.8477	77.2521	68.8477	77.2714	68.8477	77.2071	68.8477	77.2235	68.8477	77.1699	68.8477	77.1831	68.8477	77.1406	68.8477	77.1507	68.8477	77.119	68.8477	77.1261	68.8477	77.1044	68.8477	77.1089	68.8477	77.0964	68.8477	77.0985	68.8477	77.0945
