"SPL Horizontal"																																																																							
"On-Axis"		"10°"		"-10°"		"20°"		"-20°"		"30°"		"-30°"		"40°"		"-40°"		"50°"		"-50°"		"60°"		"-60°"		"70°"		"-70°"		"80°"		"-80°"		"90°"		"-90°"		"100°"		"-100°"		"110°"		"-110°"		"120°"		"-120°"		"130°"		"-130°"		"140°"		"-140°"		"150°"		"-150°"		"160°"		"-160°"		"170°"		"-170°"		"180°"	
"Frequency [Hz]"	"Sound Pessure Level [dB]  / [2.83V 1m] "	"Frequency [Hz]"	"Sound Pessure Level [dB]  / [2.83V 1m] "	"Frequency [Hz]"	"Sound Pessure Level [dB]  / [2.83V 1m] "	"Frequency [Hz]"	"Sound Pessure Level [dB]  / [2.83V 1m] "	"Frequency [Hz]"	"Sound Pessure Level [dB]  / [2.83V 1m] "	"Frequency [Hz]"	"Sound Pessure Level [dB]  / [2.83V 1m] "	"Frequency [Hz]"	"Sound Pessure Level [dB]  / [2.83V 1m] "	"Frequency [Hz]"	"Sound Pessure Level [dB]  / [2.83V 1m] "	"Frequency [Hz]"	"Sound Pessure Level [dB]  / [2.83V 1m] "	"Frequency [Hz]"	"Sound Pessure Level [dB]  / [2.83V 1m] "	"Frequency [Hz]"	"Sound Pessure Level [dB]  / [2.83V 1m] "	"Frequency [Hz]"	"Sound Pessure Level [dB]  / [2.83V 1m] "	"Frequency [Hz]"	"Sound Pessure Level [dB]  / [2.83V 1m] "	"Frequency [Hz]"	"Sound Pessure Level [dB]  / [2.83V 1m] "	"Frequency [Hz]"	"Sound Pessure Level [dB]  / [2.83V 1m] "	"Frequency [Hz]"	"Sound Pessure Level [dB]  / [2.83V 1m] "	"Frequency [Hz]"	"Sound Pessure Level [dB]  / [2.83V 1m] "	"Frequency [Hz]"	"Sound Pessure Level [dB]  / [2.83V 1m] "	"Frequency [Hz]"	"Sound Pessure Level [dB]  / [2.83V 1m] "	"Frequency [Hz]"	"Sound Pessure Level [dB]  / [2.83V 1m] "	"Frequency [Hz]"	"Sound Pessure Level [dB]  / [2.83V 1m] "	"Frequency [Hz]"	"Sound Pessure Level [dB]  / [2.83V 1m] "	"Frequency [Hz]"	"Sound Pessure Level [dB]  / [2.83V 1m] "	"Frequency [Hz]"	"Sound Pessure Level [dB]  / [2.83V 1m] "	"Frequency [Hz]"	"Sound Pessure Level [dB]  / [2.83V 1m] "	"Frequency [Hz]"	"Sound Pessure Level [dB]  / [2.83V 1m] "	"Frequency [Hz]"	"Sound Pessure Level [dB]  / [2.83V 1m] "	"Frequency [Hz]"	"Sound Pessure Level [dB]  / [2.83V 1m] "	"Frequency [Hz]"	"Sound Pessure Level [dB]  / [2.83V 1m] "	"Frequency [Hz]"	"Sound Pessure Level [dB]  / [2.83V 1m] "	"Frequency [Hz]"	"Sound Pessure Level [dB]  / [2.83V 1m] "	"Frequency [Hz]"	"Sound Pessure Level [dB]  / [2.83V 1m] "	"Frequency [Hz]"	"Sound Pessure Level [dB]  / [2.83V 1m] "	"Frequency [Hz]"	"Sound Pessure Level [dB]  / [2.83V 1m] "	"Frequency [Hz]"	"Sound Pessure Level [dB]  / [2.83V 1m] "	"Frequency [Hz]"	"Sound Pessure Level [dB]  / [2.83V 1m] "
20.5078	53.0866	20.5078	53.0148	20.5078	53.0528	20.5078	52.862	20.5078	52.9206	20.5078	52.6933	20.5078	52.7316	20.5078	52.6253	20.5078	52.5747	20.5078	52.8169	20.5078	52.5923	20.5078	53.4029	20.5078	52.9475	20.5078	54.3974	20.5078	53.7308	20.5078	55.6811	20.5078	54.8867	20.5078	57.0883	20.5078	56.2578	20.5078	58.4852	20.5078	57.6848	20.5078	59.7884	20.5078	59.0564	20.5078	60.9514	20.5078	60.3082	20.5078	61.9492	20.5078	61.4052	20.5078	62.7679	20.5078	62.3287	20.5078	63.3991	20.5078	63.0678	20.5078	63.8375	20.5078	63.6158	20.5078	64.0796	20.5078	63.9685	20.5078	64.1234
23.4375	57.3892	23.4375	57.3549	23.4375	57.3665	23.4375	57.2844	23.4375	57.2937	23.4375	57.2292	23.4375	57.2066	23.4375	57.273	23.4375	57.174	23.4375	57.5192	23.4375	57.2938	23.4375	58.051	23.4375	57.6673	23.4375	58.8827	23.4375	58.3496	23.4375	59.9482	23.4375	59.3123	23.4375	61.1393	23.4375	60.46	23.4375	62.3524	23.4375	61.6809	23.4375	63.5106	23.4375	62.8826	23.4375	64.5636	23.4375	64.0018	23.4375	65.4798	23.4375	64.9981	23.4375	66.2394	23.4375	65.8464	23.4375	66.8294	23.4375	66.5308	23.4375	67.2416	23.4375	67.0408	23.4375	67.4705	23.4375	67.3696	23.4375	67.5134
26.3672	61.9782	26.3672	61.9611	26.3672	61.9648	26.3672	61.9272	26.3672	61.9257	26.3672	61.9091	26.3672	61.8842	26.3672	61.9584	26.3672	61.8832	26.3672	62.1394	26.3672	61.9824	26.3672	62.5108	26.3672	62.2471	26.3672	63.1006	26.3672	62.724	26.3672	63.8895	26.3672	63.4183	26.3672	64.8179	26.3672	64.2879	26.3672	65.8102	26.3672	65.2615	26.3672	66.7961	26.3672	66.2635	26.3672	67.7201	26.3672	67.2301	26.3672	68.5422	26.3672	68.1136	26.3672	69.2349	26.3672	68.8802	26.3672	69.7792	26.3672	69.5069	26.3672	70.1624	26.3672	69.9781	26.3672	70.3764	26.3672	70.2835	26.3672	70.4171
29.2969	66.2387	29.2969	66.2329	29.2969	66.2331	29.2969	66.2249	29.2969	66.2192	29.2969	66.236	29.2969	66.2124	29.2969	66.2991	29.2969	66.2399	29.2969	66.4548	29.2969	66.3391	29.2969	66.7419	29.2969	66.5512	29.2969	67.1849	29.2969	66.9099	29.2969	67.7819	29.2969	67.428	29.2969	68.5032	29.2969	68.0897	29.2969	69.2999	29.2969	68.8547	29.2969	70.1173	29.2969	69.6698	29.2969	70.905	29.2969	70.4812	29.2969	71.6218	29.2969	71.2424	29.2969	72.236	29.2969	71.9167	29.2969	72.7245	29.2969	72.4765	29.2969	73.0713	29.2969	72.902	29.2969	73.2657	29.2969	73.1799	29.2969	73.3023
32.2266	69.9126	32.2266	69.9157	32.2266	69.9096	32.2266	69.9251	32.2266	69.9088	32.2266	69.9551	32.2266	69.9206	32.2266	70.0274	32.2266	69.9631	32.2266	70.1684	32.2266	70.0609	32.2266	70.4045	32.2266	70.2413	32.2266	70.7544	32.2266	70.5282	32.2266	71.222	32.2266	70.934	32.2266	71.7928	32.2266	71.4539	32.2266	72.436	32.2266	72.0651	32.2266	73.1116	32.2266	72.7312	32.2266	73.7776	32.2266	73.4103	32.2266	74.3957	32.2266	74.0613	32.2266	74.9339	32.2266	74.6486	32.2266	75.3672	32.2266	75.1433	32.2266	75.6772	32.2266	75.5233	32.2266	75.8517	32.2266	75.7735	32.2266	75.8843
35.1563	73.0138	35.1563	73.0212	35.1563	73.0131	35.1563	73.0395	35.1563	73.0204	35.1563	73.0785	35.1563	73.0429	35.1563	73.1528	35.1563	73.0928	35.1563	73.2806	35.1563	73.1869	35.1563	73.4801	35.1563	73.3436	35.1563	73.7655	35.1563	73.5799	35.1563	74.1419	35.1563	73.9064	35.1563	74.6025	35.1563	74.323	35.1563	75.1275	35.1563	74.8167	35.1563	75.688	35.1563	75.3632	35.1563	76.2503	35.1563	75.9305	35.1563	76.7807	35.1563	76.4845	35.1563	77.2489	35.1563	76.9925	35.1563	77.6297	35.1563	77.4262	35.1563	77.9041	35.1563	77.7631	35.1563	78.0589	35.1563	77.9868	35.1563	78.0869
38.0859	75.5126	38.0859	75.5232	38.0859	75.5138	38.0859	75.5485	38.0859	75.5278	38.0859	75.5952	38.0859	75.5593	38.0859	75.6732	38.0859	75.6165	38.0859	75.7945	38.0859	75.7107	38.0859	75.9715	38.0859	75.8541	38.0859	76.2143	38.0859	76.0584	38.0859	76.5274	38.0859	76.3316	38.0859	76.9072	38.0859	76.6748	38.0859	77.341	38.0859	77.0807	38.0859	77.8081	38.0859	77.5327	38.0859	78.2822	38.0859	78.0072	38.0859	78.7348	38.0859	78.4766	38.0859	79.1389	38.0859	78.9127	38.0859	79.4707	38.0859	79.2894	38.0859	79.7112	38.0859	79.5848	38.0859	79.8473	38.0859	79.7824	38.0859	79.8715
41.0156	77.3364	41.0156	77.3496	41.0156	77.3387	41.0156	77.3802	41.0156	77.3571	41.0156	77.4328	41.0156	77.3947	41.0156	77.5139	41.0156	77.457	41.0156	77.6316	41.0156	77.5514	41.0156	77.7942	41.0156	77.6863	41.0156	78.0086	41.0156	77.8695	41.0156	78.278	41.0156	78.1066	41.0156	78.6004	41.0156	78.399	41.0156	78.967	41.0156	78.7418	41.0156	79.3625	41.0156	79.1235	41.0156	79.7662	41.0156	79.5262	41.0156	80.1548	41.0156	79.9278	41.0156	80.5046	41.0156	80.3043	41.0156	80.7938	41.0156	80.6322	41.0156	81.0046	41.0156	80.8914	41.0156	81.1241	41.0156	81.0658	41.0156	81.1449
43.9453	78.7448	43.9453	78.7606	43.9453	78.7462	43.9453	78.7949	43.9453	78.7651	43.9453	78.8506	43.9453	78.8037	43.9453	78.9318	43.9453	78.8652	43.9453	79.0437	43.9453	78.9546	43.9453	79.1916	43.9453	79.0771	43.9453	79.38	43.9453	79.2381	43.9453	79.6111	43.9453	79.4413	43.9453	79.8836	43.9453	79.6879	43.9453	80.1913	43.9453	79.9751	43.9453	80.523	43.9453	80.2946	43.9453	80.8628	43.9453	80.6335	43.9453	81.1917	43.9453	80.9741	43.9453	81.4893	43.9453	81.2964	43.9453	81.7364	43.9453	81.5801	43.9453	81.9166	43.9453	81.8067	43.9453	82.0177	43.9453	81.961	43.9453	82.0329
46.875	79.7233	46.875	79.7426	46.875	79.7231	46.875	79.7815	46.875	79.7422	46.875	79.8417	46.875	79.7818	46.875	79.9255	46.875	79.8441	46.875	80.0359	46.875	79.9319	46.875	80.1758	46.875	80.0483	46.875	80.3477	46.875	80.1967	46.875	80.5528	46.875	80.3791	46.875	80.7898	46.875	80.5962	46.875	81.0542	46.875	80.8456	46.875	81.3374	46.875	81.1212	46.875	81.6272	46.875	81.4128	46.875	81.9082	46.875	81.7063	46.875	82.1633	46.875	81.9853	46.875	82.376	46.875	82.232	46.875	82.5313	46.875	82.4302	46.875	82.6182	46.875	82.566	46.875	82.6301
49.8047	80.5069	49.8047	80.5262	49.8047	80.5074	49.8047	80.5657	49.8047	80.5281	49.8047	80.6259	49.8047	80.5694	49.8047	80.7081	49.8047	80.6324	49.8047	80.8134	49.8047	80.7184	49.8047	80.9433	49.8047	80.8291	49.8047	81.0989	49.8047	80.9659	49.8047	81.2804	49.8047	81.1298	49.8047	81.4867	49.8047	81.3207	49.8047	81.7142	49.8047	81.5367	49.8047	81.9564	49.8047	81.773	49.8047	82.2038	49.8047	82.022	49.8047	82.444	49.8047	82.2725	49.8047	82.6628	49.8047	82.511	49.8047	82.8459	49.8047	82.7228	49.8047	82.9801	49.8047	82.8934	49.8047	83.0555	49.8047	83.0106	49.8047	83.066
52.7344	81.146	52.7344	81.1656	52.7344	81.147	52.7344	81.2058	52.7344	81.1687	52.7344	81.2665	52.7344	81.2113	52.7344	81.3478	52.7344	81.2748	52.7344	81.4497	52.7344	81.3595	52.7344	81.5724	52.7344	81.4657	52.7344	81.7157	52.7344	81.5935	52.7344	81.8792	52.7344	81.7429	52.7344	82.0615	52.7344	81.9132	52.7344	82.2596	52.7344	82.1026	52.7344	82.4685	52.7344	82.3074	52.7344	82.6806	52.7344	82.5215	52.7344	82.8862	52.7344	82.7363	52.7344	83.0736	52.7344	82.9408	52.7344	83.2306	52.7344	83.1227	52.7344	83.3458	52.7344	83.2697	52.7344	83.4105	52.7344	83.3711	52.7344	83.4192
55.6641	81.7261	55.6641	81.7461	55.6641	81.727	55.6641	81.7867	55.6641	81.7489	55.6641	81.8472	55.6641	81.7915	55.6641	81.927	55.6641	81.8542	55.6641	82.0253	55.6641	81.9366	55.6641	82.141	55.6641	82.0379	55.6641	82.2732	55.6641	82.1573	55.6641	82.4209	55.6641	82.2939	55.6641	82.5824	55.6641	82.4467	55.6641	82.7553	55.6641	82.6137	55.6641	82.9355	55.6641	82.7919	55.6641	83.1173	55.6641	82.9767	55.6641	83.2929	55.6641	83.1611	55.6641	83.4528	55.6641	83.3365	55.6641	83.5868	55.6641	83.4925	55.6641	83.6854	55.6641	83.6188	55.6641	83.7406	55.6641	83.7061	55.6641	83.7478
58.5938	82.2912	58.5938	82.3099	58.5938	82.2935	58.5938	82.349	58.5938	82.3167	58.5938	82.4075	58.5938	82.3603	58.5938	82.4843	58.5938	82.4232	58.5938	82.5775	58.5938	82.504	58.5938	82.6856	58.5938	82.6012	58.5938	82.8068	58.5938	82.7133	58.5938	82.9394	58.5938	82.8384	58.5938	83.0817	58.5938	82.9752	58.5938	83.2314	58.5938	83.1215	58.5938	83.3854	58.5938	83.2749	58.5938	83.5394	58.5938	83.4318	58.5938	83.6874	58.5938	83.5869	58.5938	83.8221	58.5938	83.7334	58.5938	83.9353	58.5938	83.8632	58.5938	84.0189	58.5938	83.968	58.5938	84.0664	58.5938	84.04	58.5938	84.0737
61.5234	82.7214	61.5234	82.7387	61.5234	82.7253	61.5234	82.7767	61.5234	82.7503	61.5234	82.8339	61.5234	82.7955	61.5234	82.9087	61.5234	82.8595	61.5234	82.9988	61.5234	82.9403	61.5234	83.1019	61.5234	83.0355	61.5234	83.2156	61.5234	83.1429	61.5234	83.3377	61.5234	83.2602	61.5234	83.4663	61.5234	83.3854	61.5234	83.5992	61.5234	83.5163	61.5234	83.7338	61.5234	83.6507	61.5234	83.8668	61.5234	83.7859	61.5234	83.9937	61.5234	83.9177	61.5234	84.1086	61.5234	84.0412	61.5234	84.2051	61.5234	84.15	61.5234	84.2766	61.5234	84.2374	61.5234	84.3176	61.5234	84.2972	61.5234	84.3247
64.4531	83.1431	64.4531	83.1601	64.4531	83.1468	64.4531	83.197	64.4531	83.1709	64.4531	83.2523	64.4531	83.2145	64.4531	83.3238	64.4531	83.2757	64.4531	83.4088	64.4531	83.3521	64.4531	83.5045	64.4531	83.441	64.4531	83.6082	64.4531	83.5397	64.4531	83.7172	64.4531	83.6454	64.4531	83.8294	64.4531	83.7557	64.4531	83.9428	64.4531	83.8687	64.4531	84.0553	64.4531	83.9824	64.4531	84.1647	64.4531	84.0947	64.4531	84.2678	64.4531	84.2029	64.4531	84.3605	64.4531	84.3033	64.4531	84.4379	64.4531	84.3915	64.4531	84.4951	64.4531	84.4622	64.4531	84.5277	64.4531	84.5107	64.4531	84.5331
67.3828	83.6153	67.3828	83.6306	67.3828	83.62	67.3828	83.665	67.3828	83.6443	67.3828	83.7169	67.3828	83.687	67.3828	83.7839	67.3828	83.7462	67.3828	83.863	67.3828	83.8191	67.3828	83.951	67.3828	83.9026	67.3828	84.0448	67.3828	83.9935	67.3828	84.1416	67.3828	84.0889	67.3828	84.2391	67.3828	84.1861	67.3828	84.3354	67.3828	84.2832	67.3828	84.429	67.3828	84.3785	67.3828	84.5183	67.3828	84.4705	67.3828	84.6013	67.3828	84.5575	67.3828	84.6755	67.3828	84.6371	67.3828	84.7373	67.3828	84.7062	67.3828	84.7832	67.3828	84.7611	67.3828	84.8098	67.3828	84.7984	67.3828	84.815
70.3125	84.0241	70.3125	84.0341	70.3125	84.0343	70.3125	84.0634	70.3125	84.0642	70.3125	84.1104	70.3125	84.1123	70.3125	84.1724	70.3125	84.1764	70.3125	84.2465	70.3125	84.2532	70.3125	84.329	70.3125	84.3392	70.3125	84.4166	70.3125	84.4309	70.3125	84.5063	70.3125	84.5246	70.3125	84.5956	70.3125	84.6174	70.3125	84.6828	70.3125	84.7071	70.3125	84.7667	70.3125	84.7919	70.3125	84.846	70.3125	84.8705	70.3125	84.9198	70.3125	84.9419	70.3125	84.9861	70.3125	85.0045	70.3125	85.0425	70.3125	85.0566	70.3125	85.0864	70.3125	85.0957	70.3125	85.1149	70.3125	85.1195	70.3125	85.1262
73.2422	84.3871	73.2422	84.3957	73.2422	84.3983	73.2422	84.4236	73.2422	84.4291	73.2422	84.4688	73.2422	84.4777	73.2422	84.5287	73.2422	84.5416	73.2422	84.5999	73.2422	84.6174	73.2422	84.6785	73.2422	84.7012	73.2422	84.761	73.2422	84.7889	73.2422	84.844	73.2422	84.8767	73.2422	84.9247	73.2422	84.9614	73.2422	85.0014	73.2422	85.0405	73.2422	85.0728	73.2422	85.1123	73.2422	85.1384	73.2422	85.1761	73.2422	85.1976	73.2422	85.2315	73.2422	85.2498	73.2422	85.2781	73.2422	85.2937	73.2422	85.3154	73.2422	85.3278	73.2422	85.3424	73.2422	85.3505	73.2422	85.3578	73.2422	85.3607
76.1719	84.7735	76.1719	84.7841	76.1719	84.7824	76.1719	84.8134	76.1719	84.8103	76.1719	84.8594	76.1719	84.8557	76.1719	84.9191	76.1719	84.9158	76.1719	84.9889	76.1719	84.9871	76.1719	85.0649	76.1719	85.0656	76.1719	85.143	76.1719	85.1469	76.1719	85.2195	76.1719	85.2271	76.1719	85.2917	76.1719	85.3027	76.1719	85.3575	76.1719	85.3712	76.1719	85.4158	76.1719	85.4312	76.1719	85.4665	76.1719	85.4821	76.1719	85.5098	76.1719	85.5243	76.1719	85.546	76.1719	85.5583	76.1719	85.5751	76.1719	85.5845	76.1719	85.5969	76.1719	85.6032	76.1719	85.6109	76.1719	85.614	76.1719	85.6167
79.1016	85.0281	79.1016	85.0396	79.1016	85.0367	79.1016	85.0705	79.1016	85.0651	79.1016	85.1186	79.1016	85.1117	79.1016	85.1807	79.1016	85.1735	79.1016	85.253	79.1016	85.2469	79.1016	85.3312	79.1016	85.3275	79.1016	85.411	79.1016	85.4107	79.1016	85.4885	79.1016	85.4923	79.1016	85.5604	79.1016	85.5684	79.1016	85.6244	79.1016	85.6362	79.1016	85.6796	79.1016	85.6941	79.1016	85.7258	79.1016	85.7415	79.1016	85.7635	79.1016	85.7789	79.1016	85.7936	79.1016	85.8073	79.1016	85.8169	79.1016	85.8279	79.1016	85.834	79.1016	85.8415	79.1016	85.845	79.1016	85.8488	79.1016	85.8499
82.0313	85.4076	82.0313	85.4244	82.0313	85.4085	82.0313	85.458	82.0313	85.427	82.0313	85.5061	82.0313	85.4618	82.0313	85.5655	82.0313	85.5102	82.0313	85.6323	82.0313	85.5688	82.0313	85.702	82.0313	85.6335	82.0313	85.7704	82.0313	85.6999	82.0313	85.8335	82.0313	85.7637	82.0313	85.8879	82.0313	85.8213	82.0313	85.9316	82.0313	85.87	82.0313	85.9639	82.0313	85.9085	82.0313	85.9851	82.0313	85.9366	82.0313	85.9967	82.0313	85.9557	82.0313	86.001	82.0313	85.9676	82.0313	86.0004	82.0313	85.9748	82.0313	85.9969	82.0313	85.9796	82.0313	85.9923	82.0313	85.9835	82.0313	85.9877
84.9609	85.7333	84.9609	85.7524	84.9609	85.728	84.9609	85.7841	84.9609	85.7363	84.9609	85.8261	84.9609	85.7571	84.9609	85.8754	84.9609	85.7879	84.9609	85.9281	84.9609	85.8256	84.9609	85.9797	84.9609	85.8663	84.9609	86.0261	84.9609	85.9061	84.9609	86.0634	84.9609	85.941	84.9609	86.0886	84.9609	85.9677	84.9609	86.1001	84.9609	85.9843	84.9609	86.0976	84.9609	85.9899	84.9609	86.0826	84.9609	85.9856	84.9609	86.058	84.9609	85.9738	84.9609	86.0278	84.9609	85.958	84.9609	85.9961	84.9609	85.9424	84.9609	85.9673	84.9609	85.9307	84.9609	85.9447	84.9609	85.9262	84.9609	85.9307
87.8906	85.8092	87.8906	85.8199	87.8906	85.8159	87.8906	85.8472	87.8906	85.8397	87.8906	85.889	87.8906	85.8787	87.8906	85.9418	87.8906	85.9297	87.8906	86.0014	87.8906	85.9889	87.8906	86.063	87.8906	86.0516	87.8906	86.122	87.8906	86.113	87.8906	86.1739	87.8906	86.1687	87.8906	86.2156	87.8906	86.2149	87.8906	86.2449	87.8906	86.2492	87.8906	86.2615	87.8906	86.2705	87.8906	86.2667	87.8906	86.2793	87.8906	86.263	87.8906	86.2778	87.8906	86.254	87.8906	86.269	87.8906	86.2431	87.8906	86.2565	87.8906	86.2338	87.8906	86.2438	87.8906	86.2284	87.8906	86.2338	87.8906	86.2283
90.8203	85.7529	90.8203	85.7597	90.8203	85.767	90.8203	85.7866	90.8203	85.8014	90.8203	85.8315	90.8203	85.8542	90.8203	85.891	90.8203	85.9222	90.8203	85.9609	90.8203	86.0012	90.8203	86.0363	90.8203	86.086	90.8203	86.1123	90.8203	86.1715	90.8203	86.1839	90.8203	86.2522	90.8203	86.2474	90.8203	86.3234	90.8203	86.2998	90.8203	86.3817	90.8203	86.3399	90.8203	86.4249	90.8203	86.368	90.8203	86.4525	90.8203	86.3859	90.8203	86.4656	90.8203	86.3963	90.8203	86.467	90.8203	86.4025	90.8203	86.4599	90.8203	86.4077	90.8203	86.4482	90.8203	86.4143	90.8203	86.4352	90.8203	86.4234
93.75	86.1779	93.75	86.1884	93.75	86.1821	93.75	86.2126	93.75	86.2009	93.75	86.2484	93.75	86.2331	93.75	86.2927	93.75	86.2763	93.75	86.3418	93.75	86.3272	93.75	86.3915	93.75	86.3815	93.75	86.4374	93.75	86.4347	93.75	86.4756	93.75	86.4821	93.75	86.5029	93.75	86.5197	93.75	86.5174	93.75	86.5442	93.75	86.5185	93.75	86.5541	93.75	86.5077	93.75	86.5495	93.75	86.488	93.75	86.5324	93.75	86.4637	93.75	86.5064	93.75	86.4397	93.75	86.4765	93.75	86.4208	93.75	86.4478	93.75	86.4109	93.75	86.4252	93.75	86.4123
96.6797	86.4391	96.6797	86.4561	96.6797	86.4348	96.6797	86.4847	96.6797	86.4431	96.6797	86.5229	96.6797	86.4624	96.6797	86.5671	96.6797	86.4903	96.6797	86.6134	96.6797	86.5232	96.6797	86.657	96.6797	86.5568	96.6797	86.693	96.6797	86.5866	96.6797	86.717	96.6797	86.6083	96.6797	86.7255	96.6797	86.6182	96.6797	86.7163	96.6797	86.6139	96.6797	86.6894	96.6797	86.5947	96.6797	86.6467	96.6797	86.5622	96.6797	86.5923	96.6797	86.5198	96.6797	86.5322	96.6797	86.473	96.6797	86.4733	96.6797	86.4284	96.6797	86.4228	96.6797	86.3926	96.6797	86.3867	96.6797	86.3715	96.6797	86.3691
102.539	86.5791	102.539	86.5897	102.539	86.5815	102.539	86.6126	102.539	86.5969	102.539	86.6459	102.539	86.6237	102.539	86.6864	102.539	86.6597	102.539	86.7305	102.539	86.7013	102.539	86.7736	102.539	86.7446	102.539	86.8113	102.539	86.7848	102.539	86.839	102.539	86.8176	102.539	86.8533	102.539	86.8388	102.539	86.8519	102.539	86.8456	102.539	86.8344	102.539	86.8364	102.539	86.8027	102.539	86.8122	102.539	86.7604	102.539	86.7755	102.539	86.7134	102.539	86.7313	102.539	86.6681	102.539	86.6856	102.539	86.6314	102.539	86.6452	102.539	86.6087	102.539	86.6163	102.539	86.6034
105.469	86.636	105.469	86.6416	105.469	86.6421	105.469	86.6582	105.469	86.6597	105.469	86.684	105.469	86.6874	105.469	86.7164	105.469	86.7228	105.469	86.7518	105.469	86.7626	105.469	86.7861	105.469	86.803	105.469	86.8148	105.469	86.8394	105.469	86.834	105.469	86.8673	105.469	86.8401	105.469	86.8828	105.469	86.831	105.469	86.8828	105.469	86.8067	105.469	86.866	105.469	86.769	105.469	86.8331	105.469	86.7219	105.469	86.787	105.469	86.6715	105.469	86.7326	105.469	86.6247	105.469	86.6766	105.469	86.5885	105.469	86.6263	105.469	86.5685	105.469	86.5885	105.469	86.5684
108.398	86.7416	108.398	86.7487	108.398	86.745	108.398	86.7656	108.398	86.7588	108.398	86.7906	108.398	86.7816	108.398	86.821	108.398	86.8114	108.398	86.8534	108.398	86.8448	108.398	86.8838	108.398	86.8783	108.398	86.9077	108.398	86.9073	108.398	86.9213	108.398	86.9276	108.398	86.921	108.398	86.9352	108.398	86.9049	108.398	86.9274	108.398	86.8728	108.398	86.903	108.398	86.8267	108.398	86.8627	108.398	86.771	108.398	86.81	108.398	86.7117	108.398	86.75	108.398	86.6564	108.398	86.6899	108.398	86.6124	108.398	86.6374	108.398	86.5862	108.398	86.5995	108.398	86.5816
