"SPL Vertical"																																																																							
"On-Axis"		"10°"		"-10°"		"20°"		"-20°"		"30°"		"-30°"		"40°"		"-40°"		"50°"		"-50°"		"60°"		"-60°"		"70°"		"-70°"		"80°"		"-80°"		"90°"		"-90°"		"100°"		"-100°"		"110°"		"-110°"		"120°"		"-120°"		"130°"		"-130°"		"140°"		"-140°"		"150°"		"-150°"		"160°"		"-160°"		"170°"		"-170°"		"180°"	
"Frequency [Hz]"	"Sound Pessure Level [dB]  / [2.83V 1m] "	"Frequency [Hz]"	"Sound Pessure Level [dB]  / [2.83V 1m] "	"Frequency [Hz]"	"Sound Pessure Level [dB]  / [2.83V 1m] "	"Frequency [Hz]"	"Sound Pessure Level [dB]  / [2.83V 1m] "	"Frequency [Hz]"	"Sound Pessure Level [dB]  / [2.83V 1m] "	"Frequency [Hz]"	"Sound Pessure Level [dB]  / [2.83V 1m] "	"Frequency [Hz]"	"Sound Pessure Level [dB]  / [2.83V 1m] "	"Frequency [Hz]"	"Sound Pessure Level [dB]  / [2.83V 1m] "	"Frequency [Hz]"	"Sound Pessure Level [dB]  / [2.83V 1m] "	"Frequency [Hz]"	"Sound Pessure Level [dB]  / [2.83V 1m] "	"Frequency [Hz]"	"Sound Pessure Level [dB]  / [2.83V 1m] "	"Frequency [Hz]"	"Sound Pessure Level [dB]  / [2.83V 1m] "	"Frequency [Hz]"	"Sound Pessure Level [dB]  / [2.83V 1m] "	"Frequency [Hz]"	"Sound Pessure Level [dB]  / [2.83V 1m] "	"Frequency [Hz]"	"Sound Pessure Level [dB]  / [2.83V 1m] "	"Frequency [Hz]"	"Sound Pessure Level [dB]  / [2.83V 1m] "	"Frequency [Hz]"	"Sound Pessure Level [dB]  / [2.83V 1m] "	"Frequency [Hz]"	"Sound Pessure Level [dB]  / [2.83V 1m] "	"Frequency [Hz]"	"Sound Pessure Level [dB]  / [2.83V 1m] "	"Frequency [Hz]"	"Sound Pessure Level [dB]  / [2.83V 1m] "	"Frequency [Hz]"	"Sound Pessure Level [dB]  / [2.83V 1m] "	"Frequency [Hz]"	"Sound Pessure Level [dB]  / [2.83V 1m] "	"Frequency [Hz]"	"Sound Pessure Level [dB]  / [2.83V 1m] "	"Frequency [Hz]"	"Sound Pessure Level [dB]  / [2.83V 1m] "	"Frequency [Hz]"	"Sound Pessure Level [dB]  / [2.83V 1m] "	"Frequency [Hz]"	"Sound Pessure Level [dB]  / [2.83V 1m] "	"Frequency [Hz]"	"Sound Pessure Level [dB]  / [2.83V 1m] "	"Frequency [Hz]"	"Sound Pessure Level [dB]  / [2.83V 1m] "	"Frequency [Hz]"	"Sound Pessure Level [dB]  / [2.83V 1m] "	"Frequency [Hz]"	"Sound Pessure Level [dB]  / [2.83V 1m] "	"Frequency [Hz]"	"Sound Pessure Level [dB]  / [2.83V 1m] "	"Frequency [Hz]"	"Sound Pessure Level [dB]  / [2.83V 1m] "	"Frequency [Hz]"	"Sound Pessure Level [dB]  / [2.83V 1m] "	"Frequency [Hz]"	"Sound Pessure Level [dB]  / [2.83V 1m] "	"Frequency [Hz]"	"Sound Pessure Level [dB]  / [2.83V 1m] "	"Frequency [Hz]"	"Sound Pessure Level [dB]  / [2.83V 1m] "
20.5078	53.0866	20.5078	52.7392	20.5078	53.4174	20.5078	52.4982	20.5078	53.651	20.5078	52.5164	20.5078	53.7405	20.5078	52.9159	20.5078	53.6656	20.5078	53.7102	20.5078	53.4395	20.5078	54.7986	20.5078	53.1391	20.5078	56.0392	20.5078	52.9571	20.5078	57.3157	20.5078	53.2065	20.5078	58.554	20.5078	54.1228	20.5078	59.7123	20.5078	55.6005	20.5078	60.767	20.5078	57.3074	20.5078	61.7031	20.5078	58.9682	20.5078	62.5082	20.5078	60.4419	20.5078	63.1706	20.5078	61.6743	20.5078	63.6773	20.5078	62.6521	20.5078	64.0148	20.5078	63.3789	20.5078	64.1684	20.5078	63.8649	20.5078	64.1234
23.4375	57.3892	23.4375	57.195	23.4375	57.5962	23.4375	57.1018	23.4375	57.7515	23.4375	57.2076	23.4375	57.8165	23.4375	57.5856	23.4375	57.7787	23.4375	58.248	23.4375	57.6602	23.4375	59.141	23.4375	57.5372	23.4375	60.1772	23.4375	57.5604	23.4375	61.2719	23.4375	57.9289	23.4375	62.3609	23.4375	58.7675	23.4375	63.4009	23.4375	60.0069	23.4375	64.3633	23.4375	61.4402	23.4375	65.2279	23.4375	62.8688	23.4375	65.9786	23.4375	64.1676	23.4375	66.6007	23.4375	65.2743	23.4375	67.0797	23.4375	66.1639	23.4375	67.401	23.4375	66.8303	23.4375	67.5503	23.4375	67.2772	23.4375	67.5134
26.3672	61.9782	26.3672	61.8376	26.3672	62.1313	26.3672	61.7641	26.3672	62.2561	26.3672	61.8187	26.3672	62.3282	26.3672	62.0539	26.3672	62.3416	26.3672	62.4949	26.3672	62.3141	26.3672	63.1294	26.3672	62.2968	26.3672	63.9136	26.3672	62.3795	26.3672	64.7899	26.3672	62.676	26.3672	65.7028	26.3672	63.2716	26.3672	66.6066	26.3672	64.1607	26.3672	67.4661	26.3672	65.2428	26.3672	68.2542	26.3672	66.3832	26.3672	68.9491	26.3672	67.4684	26.3672	69.532	26.3672	68.4242	26.3672	69.9856	26.3672	69.2097	26.3672	70.2939	26.3672	69.806	26.3672	70.4422	26.3672	70.2076	26.3672	70.4171
29.2969	66.2387	29.2969	66.1391	29.2969	66.3539	29.2969	66.09	29.2969	66.4583	29.2969	66.1298	29.2969	66.5361	29.2969	66.2937	29.2969	66.5842	29.2969	66.6041	29.2969	66.6162	29.2969	67.0633	29.2969	66.6659	29.2969	67.6527	29.2969	66.7891	29.2969	68.3388	29.2969	67.0539	29.2969	69.0819	29.2969	67.5149	29.2969	69.8429	29.2969	68.1816	29.2969	70.5875	29.2969	69.0061	29.2969	71.2863	29.2969	69.9043	29.2969	71.914	29.2969	70.7889	29.2969	72.4489	29.2969	71.5903	29.2969	72.8715	29.2969	72.2624	29.2969	73.1643	29.2969	72.7783	29.2969	73.3121	29.2969	73.1258	29.2969	73.3023
32.2266	69.9126	32.2266	69.839	32.2266	70.0037	32.2266	69.8056	32.2266	70.0947	32.2266	69.838	32.2266	70.1753	32.2266	69.9601	32.2266	70.2441	32.2266	70.1898	32.2266	70.3111	32.2266	70.5336	32.2266	70.3993	32.2266	70.9851	32.2266	70.5443	32.2266	71.5259	32.2266	70.789	32.2266	72.1295	32.2266	71.1688	32.2266	72.7659	32.2266	71.6942	32.2266	73.4048	32.2266	72.3408	32.2266	74.0178	32.2266	73.0557	32.2266	74.5792	32.2266	73.7752	32.2266	75.0655	32.2266	74.4406	32.2266	75.456	32.2266	75.0074	32.2266	75.7323	32.2266	75.4462	32.2266	75.879	32.2266	75.7405	32.2266	75.8843
35.1563	73.0138	35.1563	72.949	35.1563	73.0969	35.1563	72.9183	35.1563	73.1862	35.1563	72.9393	35.1563	73.2745	35.1563	73.0292	35.1563	73.3608	35.1563	73.2019	35.1563	73.4519	35.1563	73.4648	35.1563	73.5629	35.1563	73.8167	35.1563	73.7171	35.1563	74.248	35.1563	73.942	35.1563	74.7412	35.1563	74.2611	35.1563	75.2738	35.1563	74.6838	35.1563	75.821	35.1563	75.1974	35.1563	76.3569	35.1563	75.7684	35.1563	76.857	35.1563	76.3506	35.1563	77.2977	35.1563	76.8971	35.1563	77.658	35.1563	77.3678	35.1563	77.9192	35.1563	77.7335	35.1563	78.0659	35.1563	77.976	35.1563	78.0869
38.0859	75.5126	38.0859	75.4591	38.0859	75.5855	38.0859	75.4358	38.0859	75.6696	38.0859	75.4547	38.0859	75.7601	38.0859	75.5277	38.0859	75.8563	38.0859	75.665	38.0859	75.9626	38.0859	75.873	38.0859	76.0891	38.0859	76.153	38.0859	76.2507	38.0859	76.5002	38.0859	76.4648	38.0859	76.9038	38.0859	76.7464	38.0859	77.3478	38.0859	77.1018	38.0859	77.8129	38.0859	77.5231	38.0859	78.2773	38.0859	77.9878	38.0859	78.7185	38.0859	78.4624	38.0859	79.1145	38.0859	78.9102	38.0859	79.4444	38.0859	79.2972	38.0859	79.6899	38.0859	79.5969	38.0859	79.8359	38.0859	79.7914	38.0859	79.8715
41.0156	77.3364	41.0156	77.2873	41.0156	77.4063	41.0156	77.2663	41.0156	77.491	41.0156	77.2821	41.0156	77.587	41.0156	77.3429	41.0156	77.6934	41.0156	77.4564	41.0156	77.8127	41.0156	77.6275	41.0156	77.9513	41.0156	77.8584	41.0156	78.1181	41.0156	78.1464	41.0156	78.3241	41.0156	78.4846	41.0156	78.5784	41.0156	78.8616	41.0156	78.8847	41.0156	79.2622	41.0156	79.2377	41.0156	79.6683	41.0156	79.6214	41.0156	80.0601	41.0156	80.0114	41.0156	80.4174	41.0156	80.379	41.0156	80.7205	41.0156	80.696	41.0156	80.9518	41.0156	80.9392	41.0156	81.0966	41.0156	81.0919	41.0156	81.1449
43.9453	78.7448	43.9453	78.6984	43.9453	78.812	43.9453	78.6779	43.9453	78.896	43.9453	78.689	43.9453	78.994	43.9453	78.7374	43.9453	79.1053	43.9453	78.8285	43.9453	79.2308	43.9453	78.9665	43.9453	79.3739	43.9453	79.1532	43.9453	79.5396	43.9453	79.3881	43.9453	79.7341	43.9453	79.6669	43.9453	79.9624	43.9453	79.982	43.9453	80.2262	43.9453	80.3219	43.9453	80.5213	43.9453	80.6722	43.9453	80.8363	43.9453	81.0159	43.9453	81.1529	43.9453	81.3351	43.9453	81.4492	43.9453	81.6116	43.9453	81.7025	43.9453	81.8287	43.9453	81.893	43.9453	81.9723	43.9453	82.0059	43.9453	82.0329
46.875	79.7233	46.875	79.6797	46.875	79.7884	46.875	79.6608	46.875	79.8722	46.875	79.6704	46.875	79.9726	46.875	79.7123	46.875	80.0884	46.875	79.7901	46.875	80.2198	46.875	79.9068	46.875	80.3679	46.875	80.064	46.875	80.5348	46.875	80.2617	46.875	80.7233	46.875	80.4975	46.875	80.9355	46.875	80.766	46.875	81.1712	46.875	81.0589	46.875	81.4263	46.875	81.3646	46.875	81.692	46.875	81.6692	46.875	81.9542	46.875	81.9566	46.875	82.1958	46.875	82.2107	46.875	82.3985	46.875	82.4158	46.875	82.5458	46.875	82.5588	46.875	82.6254	46.875	82.6301
49.8047	80.5069	49.8047	80.4626	49.8047	80.5727	49.8047	80.442	49.8047	80.6582	49.8047	80.4473	49.8047	80.7617	49.8047	80.4809	49.8047	80.8818	49.8047	80.5452	49.8047	81.0175	49.8047	80.6422	49.8047	81.1684	49.8047	80.7732	49.8047	81.3345	49.8047	80.9387	49.8047	81.5159	49.8047	81.1372	49.8047	81.7124	49.8047	81.3654	49.8047	81.9225	49.8047	81.6171	49.8047	82.1422	49.8047	81.8835	49.8047	82.3643	49.8047	82.1531	49.8047	82.5783	49.8047	82.4122	49.8047	82.7706	49.8047	82.6462	49.8047	82.9271	49.8047	82.8409	49.8047	83.0345	49.8047	82.9838	49.8047	83.0827	49.8047	83.066
52.7344	81.146	52.7344	81.1031	52.7344	81.2106	52.7344	81.0831	52.7344	81.2958	52.7344	81.087	52.7344	81.4001	52.7344	81.1161	52.7344	81.522	52.7344	81.1715	52.7344	81.6598	52.7344	81.2546	52.7344	81.8117	52.7344	81.3661	52.7344	81.9761	52.7344	81.5066	52.7344	82.1512	52.7344	81.6753	52.7344	82.3352	52.7344	81.8703	52.7344	82.5253	52.7344	82.0872	52.7344	82.7175	52.7344	82.3194	52.7344	82.9058	52.7344	82.5576	52.7344	83.0817	52.7344	82.7905	52.7344	83.2349	52.7344	83.0051	52.7344	83.3544	52.7344	83.1887	52.7344	83.4296	52.7344	83.3296	52.7344	83.4526	52.7344	83.4192
55.6641	81.7261	55.6641	81.6837	55.6641	81.7902	55.6641	81.6632	55.6641	81.8753	55.6641	81.665	55.6641	81.9802	55.6641	81.6893	55.6641	82.1031	55.6641	81.7363	55.6641	82.242	55.6641	81.8066	55.6641	82.394	55.6641	81.9007	55.6641	82.5562	55.6641	82.0192	55.6641	82.7254	55.6641	82.1618	55.6641	82.8986	55.6641	82.3277	55.6641	83.072	55.6641	82.514	55.6641	83.2414	55.6641	82.7161	55.6641	83.4014	55.6641	82.9268	55.6641	83.5453	55.6641	83.1368	55.6641	83.6649	55.6641	83.335	55.6641	83.7517	55.6641	83.5097	55.6641	83.7978	55.6641	83.6501	55.6641	83.7974	55.6641	83.7478
58.5938	82.2912	58.5938	82.246	58.5938	82.358	58.5938	82.2221	58.5938	82.4458	58.5938	82.2192	58.5938	82.5536	58.5938	82.2368	58.5938	82.6793	58.5938	82.2745	58.5938	82.82	58.5938	82.3323	58.5938	82.9723	58.5938	82.4102	58.5938	83.1321	58.5938	82.5087	58.5938	83.2951	58.5938	82.628	58.5938	83.4571	58.5938	82.7678	58.5938	83.6137	58.5938	82.9267	58.5938	83.7606	58.5938	83.1016	58.5938	83.893	58.5938	83.2874	58.5938	84.0055	58.5938	83.4765	58.5938	84.0921	58.5938	83.6596	58.5938	84.1468	58.5938	83.8266	58.5938	84.164	58.5938	83.9674	58.5938	84.14	58.5938	84.0737
61.5234	82.7214	61.5234	82.6756	61.5234	82.7887	61.5234	82.6507	61.5234	82.8776	61.5234	82.6458	61.5234	82.9868	61.5234	82.6596	61.5234	83.1143	61.5234	82.6912	61.5234	83.257	61.5234	82.7399	61.5234	83.4104	61.5234	82.8057	61.5234	83.5699	61.5234	82.8889	61.5234	83.73	61.5234	82.9898	61.5234	83.8856	61.5234	83.1088	61.5234	84.0315	61.5234	83.2456	61.5234	84.1631	61.5234	83.3985	61.5234	84.2758	61.5234	83.564	61.5234	84.365	61.5234	83.7362	61.5234	84.4263	61.5234	83.9074	61.5234	84.4555	61.5234	84.0686	61.5234	84.4491	61.5234	84.2104	61.5234	84.4053	61.5234	84.3247
64.4531	83.1431	64.4531	83.0949	64.4531	83.2123	64.4531	83.0667	64.4531	83.3025	64.4531	83.0571	64.4531	83.4126	64.4531	83.0646	64.4531	83.5403	64.4531	83.0876	64.4531	83.682	64.4531	83.1252	64.4531	83.833	64.4531	83.1769	64.4531	83.9876	64.4531	83.2428	64.4531	84.1401	64.4531	83.3237	64.4531	84.2845	64.4531	83.4205	64.4531	84.4154	64.4531	83.5336	64.4531	84.528	64.4531	83.6628	64.4531	84.6181	64.4531	83.8062	64.4531	84.6821	64.4531	83.9596	64.4531	84.717	64.4531	84.1171	64.4531	84.7202	64.4531	84.2707	64.4531	84.6903	64.4531	84.4121	64.4531	84.6273	64.4531	84.5331
67.3828	83.6153	67.3828	83.5644	67.3828	83.6864	67.3828	83.5325	67.3828	83.7779	67.3828	83.5179	67.3828	83.8888	67.3828	83.5185	67.3828	84.0167	67.3828	83.5326	67.3828	84.1577	67.3828	83.5587	67.3828	84.3067	67.3828	83.5964	67.3828	84.4577	67.3828	83.6457	67.3828	84.6042	67.3828	83.7077	67.3828	84.7398	67.3828	83.7837	67.3828	84.8585	67.3828	83.8754	67.3828	84.9554	67.3828	83.9835	67.3828	85.0263	67.3828	84.1078	67.3828	85.0684	67.3828	84.2458	67.3828	85.0795	67.3828	84.3927	67.3828	85.0587	67.3828	84.5419	67.3828	85.0062	67.3828	84.6853	67.3828	84.9238	67.3828	84.815
70.3125	84.0241	70.3125	83.9703	70.3125	84.0986	70.3125	83.9359	70.3125	84.1939	70.3125	83.9189	70.3125	84.3088	70.3125	83.9169	70.3125	84.4405	70.3125	83.9279	70.3125	84.5846	70.3125	83.95	70.3125	84.7356	70.3125	83.9824	70.3125	84.8867	70.3125	84.0251	70.3125	85.0311	70.3125	84.0788	70.3125	85.1619	70.3125	84.1453	70.3125	85.2729	70.3125	84.2263	70.3125	85.3591	70.3125	84.3234	70.3125	85.4169	70.3125	84.4368	70.3125	85.4439	70.3125	84.5652	70.3125	85.4392	70.3125	84.7048	70.3125	85.4028	70.3125	84.8497	70.3125	85.3364	70.3125	84.9928	70.3125	85.2427	70.3125	85.1262
73.2422	84.3871	73.2422	84.3349	73.2422	84.4595	73.2422	84.3017	73.2422	84.5525	73.2422	84.2851	73.2422	84.6647	73.2422	84.2825	73.2422	84.7934	73.2422	84.2916	73.2422	84.934	73.2422	84.3102	73.2422	85.0808	73.2422	84.3369	73.2422	85.227	73.2422	84.3716	73.2422	85.3655	73.2422	84.4149	73.2422	85.4893	73.2422	84.4685	73.2422	85.5919	73.2422	84.5347	73.2422	85.6683	73.2422	84.6156	73.2422	85.7148	73.2422	84.7127	73.2422	85.7294	73.2422	84.8258	73.2422	85.7115	73.2422	84.9525	73.2422	85.6624	73.2422	85.0884	73.2422	85.5845	73.2422	85.2269	73.2422	85.4821	73.2422	85.3607
76.1719	84.7735	76.1719	84.715	76.1719	84.852	76.1719	84.6752	76.1719	84.9506	76.1719	84.6519	76.1719	85.0677	76.1719	84.6422	76.1719	85.2003	76.1719	84.6435	76.1719	85.3435	76.1719	84.6536	76.1719	85.4912	76.1719	84.671	76.1719	85.6363	76.1719	84.6951	76.1719	85.7713	76.1719	84.7267	76.1719	85.8889	76.1719	84.7676	76.1719	85.9824	76.1719	84.8205	76.1719	86.0466	76.1719	84.8883	76.1719	86.078	76.1719	84.9734	76.1719	86.0749	76.1719	85.0768	76.1719	86.0377	76.1719	85.1974	76.1719	85.9685	76.1719	85.3318	76.1719	85.8713	76.1719	85.474	76.1719	85.7517	76.1719	85.6167
79.1016	85.0281	79.1016	84.9683	79.1016	85.1086	79.1016	84.9277	79.1016	85.2099	79.1016	84.9038	79.1016	85.3306	79.1016	84.8937	79.1016	85.4673	79.1016	84.8945	79.1016	85.6153	79.1016	84.9036	79.1016	85.7681	79.1016	84.9192	79.1016	85.9182	79.1016	84.9408	79.1016	86.0578	79.1016	84.9689	79.1016	86.1789	79.1016	85.0054	79.1016	86.2744	79.1016	85.0532	79.1016	86.3386	79.1016	85.1157	79.1016	86.3674	79.1016	85.196	79.1016	86.359	79.1016	85.2961	79.1016	86.3138	79.1016	85.4157	79.1016	86.2346	79.1016	85.5519	79.1016	86.1261	79.1016	85.6992	79.1016	85.9952	79.1016	85.8499
82.0313	85.4076	82.0313	85.3491	82.0313	85.4846	82.0313	85.3076	82.0313	85.5804	82.0313	85.2806	82.0313	85.6934	82.0313	85.2649	82.0313	85.8204	82.0313	85.2574	82.0313	85.9568	82.0313	85.2553	82.0313	86.0962	82.0313	85.2567	82.0313	86.2314	82.0313	85.261	82.0313	86.3548	82.0313	85.2688	82.0313	86.4587	82.0313	85.2824	82.0313	86.5362	82.0313	85.3055	82.0313	86.5815	82.0313	85.3424	82.0313	86.591	82.0313	85.3977	82.0313	86.5631	82.0313	85.475	82.0313	86.4991	82.0313	85.5757	82.0313	86.4026	82.0313	85.6982	82.0313	86.2796	82.0313	85.838	82.0313	86.1382	82.0313	85.9877
84.9609	85.7333	84.9609	85.669	84.9609	85.8121	84.9609	85.6179	84.9609	85.9055	84.9609	85.5774	84.9609	86.0119	84.9609	85.5446	84.9609	86.1282	84.9609	85.5165	84.9609	86.2496	84.9609	85.4905	84.9609	86.3702	84.9609	85.4649	84.9609	86.4828	84.9609	85.4393	84.9609	86.5802	84.9609	85.4149	84.9609	86.6551	84.9609	85.3946	84.9609	86.701	84.9609	85.3829	84.9609	86.713	84.9609	85.3857	84.9609	86.6881	84.9609	85.409	84.9609	86.6259	84.9609	85.4582	84.9609	86.5289	84.9609	85.5366	84.9609	86.4022	84.9609	85.6444	84.9609	86.2536	84.9609	85.7781	84.9609	86.0928	84.9609	85.9307
87.8906	85.8092	87.8906	85.7455	87.8906	85.8913	87.8906	85.6985	87.8906	85.9921	87.8906	85.6652	87.8906	86.1101	87.8906	85.6421	87.8906	86.2415	87.8906	85.6255	87.8906	86.3812	87.8906	85.6124	87.8906	86.5221	87.8906	85.6006	87.8906	86.6565	87.8906	85.5896	87.8906	86.7759	87.8906	85.5804	87.8906	86.8722	87.8906	85.5759	87.8906	86.9384	87.8906	85.5805	87.8906	86.9687	87.8906	85.5998	87.8906	86.9597	87.8906	85.6399	87.8906	86.9107	87.8906	85.7056	87.8906	86.8236	87.8906	85.7997	87.8906	86.7034	87.8906	85.9216	87.8906	86.5575	87.8906	86.067	87.8906	86.3955	87.8906	86.2283
90.8203	85.7529	90.8203	85.6931	90.8203	85.8348	90.8203	85.6538	90.8203	85.9388	90.8203	85.6322	90.8203	86.0628	90.8203	85.6245	90.8203	86.2031	90.8203	85.6268	90.8203	86.3543	90.8203	85.6352	90.8203	86.5093	90.8203	85.647	90.8203	86.6604	90.8203	85.6605	90.8203	86.7991	90.8203	85.6758	90.8203	86.9168	90.8203	85.6947	90.8203	87.0059	90.8203	85.7206	90.8203	87.0597	90.8203	85.7585	90.8203	87.0737	90.8203	85.8135	90.8203	87.046	90.8203	85.8905	90.8203	86.9777	90.8203	85.992	90.8203	86.873	90.8203	86.118	90.8203	86.739	90.8203	86.2642	90.8203	86.5855	90.8203	86.4234
93.75	86.1779	93.75	86.1068	93.75	86.2646	93.75	86.0505	93.75	86.3666	93.75	86.0068	93.75	86.4818	93.75	85.973	93.75	86.6066	93.75	85.9457	93.75	86.7361	93.75	85.9219	93.75	86.8644	93.75	85.8997	93.75	86.9845	93.75	85.8779	93.75	87.0892	93.75	85.8572	93.75	87.171	93.75	85.8401	93.75	87.2232	93.75	85.831	93.75	87.24	93.75	85.8356	93.75	87.2177	93.75	85.8604	93.75	87.1549	93.75	85.9116	93.75	87.0537	93.75	85.9933	93.75	86.9192	93.75	86.1068	93.75	86.7598	93.75	86.2488	93.75	86.5867	93.75	86.4123
96.6797	86.4391	96.6797	86.3676	96.6797	86.5245	96.6797	86.3087	96.6797	86.6238	96.6797	86.2596	96.6797	86.7349	96.6797	86.217	96.6797	86.8543	96.6797	86.1771	96.6797	86.9767	96.6797	86.1366	96.6797	87.0956	96.6797	86.0931	96.6797	87.2037	96.6797	86.046	96.6797	87.2934	96.6797	85.9963	96.6797	87.3568	96.6797	85.9473	96.6797	87.3872	96.6797	85.9046	96.6797	87.379	96.6797	85.8759	96.6797	87.3289	96.6797	85.8696	96.6797	87.2365	96.6797	85.8942	96.6797	87.1049	96.6797	85.9561	96.6797	86.9408	96.6797	86.0582	96.6797	86.7545	96.6797	86.1983	96.6797	86.5592	96.6797	86.3691
102.539	86.5791	102.539	86.5043	102.539	86.669	102.539	86.4439	102.539	86.7733	102.539	86.3954	102.539	86.8894	102.539	86.3558	102.539	87.0133	102.539	86.3212	102.539	87.1398	102.539	86.2881	102.539	87.2624	102.539	86.2539	102.539	87.3742	102.539	86.2171	102.539	87.4679	102.539	86.1784	102.539	87.5361	102.539	86.1405	102.539	87.5721	102.539	86.1086	102.539	87.5705	102.539	86.0895	102.539	87.5278	102.539	86.0915	102.539	87.4431	102.539	86.1226	102.539	87.3189	102.539	86.189	102.539	87.1617	102.539	86.2934	102.539	86.9813	102.539	86.4339	102.539	86.7904	102.539	86.6034
105.469	86.636	105.469	86.5619	105.469	86.7239	105.469	86.5008	105.469	86.8248	105.469	86.4506	105.469	86.9361	105.469	86.4081	105.469	87.0539	105.469	86.3696	105.469	87.1732	105.469	86.3316	105.469	87.2879	105.469	86.2915	105.469	87.3914	105.469	86.248	105.469	87.4768	105.469	86.2018	105.469	87.5372	105.469	86.1559	105.469	87.5661	105.469	86.1155	105.469	87.5581	105.469	86.0878	105.469	87.5098	105.469	86.0813	105.469	87.4203	105.469	86.1045	105.469	87.292	105.469	86.1642	105.469	87.1313	105.469	86.2634	105.469	86.9482	105.469	86.4005	105.469	86.7557	105.469	86.5684
108.398	86.7416	108.398	86.6641	108.398	86.832	108.398	86.5991	108.398	86.934	108.398	86.5445	108.398	87.045	108.398	86.4974	108.398	87.1609	108.398	86.454	108.398	87.2763	108.398	86.4109	108.398	87.3855	108.398	86.3654	108.398	87.4819	108.398	86.3162	108.398	87.5591	108.398	86.2639	108.398	87.6104	108.398	86.2115	108.398	87.6299	108.398	86.1641	108.398	87.6126	108.398	86.1292	108.398	87.5553	108.398	86.1156	108.398	87.4574	108.398	86.132	108.398	87.3215	108.398	86.1857	108.398	87.1543	108.398	86.2803	108.398	86.9661	108.398	86.4145	108.398	86.7702	108.398	86.5816
