"SPL Horizontal"																																																																							
"On-Axis"		"10°"		"-10°"		"20°"		"-20°"		"30°"		"-30°"		"40°"		"-40°"		"50°"		"-50°"		"60°"		"-60°"		"70°"		"-70°"		"80°"		"-80°"		"90°"		"-90°"		"100°"		"-100°"		"110°"		"-110°"		"120°"		"-120°"		"130°"		"-130°"		"140°"		"-140°"		"150°"		"-150°"		"160°"		"-160°"		"170°"		"-170°"		"180°"	
"Frequency [Hz]"	"Sound Pessure Level [dB]  / [2.83V 1m] "	"Frequency [Hz]"	"Sound Pessure Level [dB]  / [2.83V 1m] "	"Frequency [Hz]"	"Sound Pessure Level [dB]  / [2.83V 1m] "	"Frequency [Hz]"	"Sound Pessure Level [dB]  / [2.83V 1m] "	"Frequency [Hz]"	"Sound Pessure Level [dB]  / [2.83V 1m] "	"Frequency [Hz]"	"Sound Pessure Level [dB]  / [2.83V 1m] "	"Frequency [Hz]"	"Sound Pessure Level [dB]  / [2.83V 1m] "	"Frequency [Hz]"	"Sound Pessure Level [dB]  / [2.83V 1m] "	"Frequency [Hz]"	"Sound Pessure Level [dB]  / [2.83V 1m] "	"Frequency [Hz]"	"Sound Pessure Level [dB]  / [2.83V 1m] "	"Frequency [Hz]"	"Sound Pessure Level [dB]  / [2.83V 1m] "	"Frequency [Hz]"	"Sound Pessure Level [dB]  / [2.83V 1m] "	"Frequency [Hz]"	"Sound Pessure Level [dB]  / [2.83V 1m] "	"Frequency [Hz]"	"Sound Pessure Level [dB]  / [2.83V 1m] "	"Frequency [Hz]"	"Sound Pessure Level [dB]  / [2.83V 1m] "	"Frequency [Hz]"	"Sound Pessure Level [dB]  / [2.83V 1m] "	"Frequency [Hz]"	"Sound Pessure Level [dB]  / [2.83V 1m] "	"Frequency [Hz]"	"Sound Pessure Level [dB]  / [2.83V 1m] "	"Frequency [Hz]"	"Sound Pessure Level [dB]  / [2.83V 1m] "	"Frequency [Hz]"	"Sound Pessure Level [dB]  / [2.83V 1m] "	"Frequency [Hz]"	"Sound Pessure Level [dB]  / [2.83V 1m] "	"Frequency [Hz]"	"Sound Pessure Level [dB]  / [2.83V 1m] "	"Frequency [Hz]"	"Sound Pessure Level [dB]  / [2.83V 1m] "	"Frequency [Hz]"	"Sound Pessure Level [dB]  / [2.83V 1m] "	"Frequency [Hz]"	"Sound Pessure Level [dB]  / [2.83V 1m] "	"Frequency [Hz]"	"Sound Pessure Level [dB]  / [2.83V 1m] "	"Frequency [Hz]"	"Sound Pessure Level [dB]  / [2.83V 1m] "	"Frequency [Hz]"	"Sound Pessure Level [dB]  / [2.83V 1m] "	"Frequency [Hz]"	"Sound Pessure Level [dB]  / [2.83V 1m] "	"Frequency [Hz]"	"Sound Pessure Level [dB]  / [2.83V 1m] "	"Frequency [Hz]"	"Sound Pessure Level [dB]  / [2.83V 1m] "	"Frequency [Hz]"	"Sound Pessure Level [dB]  / [2.83V 1m] "	"Frequency [Hz]"	"Sound Pessure Level [dB]  / [2.83V 1m] "	"Frequency [Hz]"	"Sound Pessure Level [dB]  / [2.83V 1m] "	"Frequency [Hz]"	"Sound Pessure Level [dB]  / [2.83V 1m] "	"Frequency [Hz]"	"Sound Pessure Level [dB]  / [2.83V 1m] "
20.5078	54.0252	20.5078	53.9299	20.5078	54.1395	20.5078	53.8574	20.5078	54.2687	20.5078	53.8106	20.5078	54.4083	20.5078	53.7914	20.5078	54.554	20.5078	53.8001	20.5078	54.7013	20.5078	53.8359	20.5078	54.8458	20.5078	53.8966	20.5078	54.9835	20.5078	53.9794	20.5078	55.1103	20.5078	54.081	20.5078	55.2229	20.5078	54.1979	20.5078	55.3179	20.5078	54.327	20.5078	55.3931	20.5078	54.465	20.5078	55.4462	20.5078	54.6086	20.5078	55.4761	20.5078	54.7539	20.5078	55.4817	20.5078	54.8966	20.5078	55.4628	20.5078	55.0322	20.5078	55.4195	20.5078	55.1561	20.5078	55.3528	20.5078	55.2641
21.9727	52.2855	21.9727	52.2668	21.9727	52.3176	21.9727	52.2616	21.9727	52.3625	21.9727	52.2695	21.9727	52.4194	21.9727	52.2898	21.9727	52.4871	21.9727	52.3213	21.9727	52.5641	21.9727	52.3625	21.9727	52.6486	21.9727	52.412	21.9727	52.7383	21.9727	52.4686	21.9727	52.8307	21.9727	52.5312	21.9727	52.9226	21.9727	52.5993	21.9727	53.0107	21.9727	52.6722	21.9727	53.0917	21.9727	52.7497	21.9727	53.162	21.9727	52.831	21.9727	53.2183	21.9727	52.9146	21.9727	53.2575	21.9727	52.9981	21.9727	53.2769	21.9727	53.078	21.9727	53.2752	21.9727	53.15	21.9727	53.2523	21.9727	53.2095
23.4375	53.4638	23.4375	53.5026	23.4375	53.4233	23.4375	53.5404	23.4375	53.3807	23.4375	53.5771	23.4375	53.335	23.4375	53.6122	23.4375	53.2855	23.4375	53.6446	23.4375	53.2317	23.4375	53.6729	23.4375	53.1732	23.4375	53.6949	23.4375	53.1102	23.4375	53.7083	23.4375	53.0436	23.4375	53.7103	23.4375	52.9751	23.4375	53.6984	23.4375	52.9077	23.4375	53.6702	23.4375	52.846	23.4375	53.6237	23.4375	52.796	23.4375	53.5581	23.4375	52.7646	23.4375	53.4735	23.4375	52.7583	23.4375	53.3722	23.4375	52.7817	23.4375	53.2584	23.4375	52.8361	23.4375	53.139	23.4375	52.9185	23.4375	53.0225
24.9023	51.4625	24.9023	51.449	24.9023	51.4883	24.9023	51.4493	24.9023	51.525	24.9023	51.4648	24.9023	51.571	24.9023	51.4965	24.9023	51.6255	24.9023	51.5447	24.9023	51.6874	24.9023	51.6086	24.9023	51.7562	24.9023	51.687	24.9023	51.8313	24.9023	51.7775	24.9023	51.912	24.9023	51.8773	24.9023	51.9977	24.9023	51.9829	24.9023	52.0872	24.9023	52.0909	24.9023	52.1787	24.9023	52.1975	24.9023	52.2698	24.9023	52.2985	24.9023	52.3569	24.9023	52.3899	24.9023	52.4357	24.9023	52.4677	24.9023	52.5017	24.9023	52.5281	24.9023	52.5507	24.9023	52.5679	24.9023	52.5793	24.9023	52.5853
26.3672	53.8368	26.3672	53.868	26.3672	53.8212	26.3672	53.9151	26.3672	53.8209	26.3672	53.9777	26.3672	53.8354	26.3672	54.055	26.3672	53.8643	26.3672	54.1454	26.3672	53.9074	26.3672	54.2462	26.3672	53.9642	26.3672	54.354	26.3672	54.0339	26.3672	54.4649	26.3672	54.1156	26.3672	54.5745	26.3672	54.2078	26.3672	54.6786	26.3672	54.3084	26.3672	54.7736	26.3672	54.4145	26.3672	54.8564	26.3672	54.5229	26.3672	54.9245	26.3672	54.6296	26.3672	54.9764	26.3672	54.7302	26.3672	55.0106	26.3672	54.8208	26.3672	55.0264	26.3672	54.8977	26.3672	55.0231	26.3672	54.9582	26.3672	55.0002
27.832	51.8824	27.832	51.9751	27.832	51.839	27.832	52.1162	27.832	51.8451	27.832	52.3034	27.832	51.9	27.832	52.5329	27.832	52.002	27.832	52.7987	27.832	52.1485	27.832	53.0931	27.832	52.3357	27.832	53.406	27.832	52.558	27.832	53.7264	27.832	52.8089	27.832	54.0421	27.832	53.0808	27.832	54.3412	27.832	53.3654	27.832	54.6124	27.832	53.6544	27.832	54.8459	27.832	53.9397	27.832	55.0341	27.832	54.2136	27.832	55.1715	27.832	54.4692	27.832	55.2549	27.832	54.6998	27.832	55.2837	27.832	54.8995	27.832	55.2591	27.832	55.0627	27.832	55.1842
29.2969	47.5709	29.2969	47.8983	29.2969	47.3807	29.2969	48.3447	29.2969	47.3392	29.2969	48.8871	29.2969	47.4491	29.2969	49.5006	29.2969	47.7036	29.2969	50.1598	29.2969	48.0871	29.2969	50.8403	29.2969	48.5773	29.2969	51.5198	29.2969	49.1483	29.2969	52.1779	29.2969	49.7732	29.2969	52.7968	29.2969	50.4266	29.2969	53.3606	29.2969	51.0858	29.2969	53.856	29.2969	51.7311	29.2969	54.2719	29.2969	52.3463	29.2969	54.5999	29.2969	52.918	29.2969	54.8343	29.2969	53.4357	29.2969	54.9723	29.2969	53.8908	29.2969	55.0136	29.2969	54.2766	29.2969	54.9606	29.2969	54.5871	29.2969	54.8168
30.7617	50.2668	30.7617	50.2949	30.7617	50.3845	30.7617	50.4704	30.7617	50.6369	30.7617	50.7851	30.7617	51.0055	30.7617	51.2212	30.7617	51.468	30.7617	51.7548	30.7617	52.0001	30.7617	52.3578	30.7617	52.5784	30.7617	53.0017	30.7617	53.1814	30.7617	53.6588	30.7617	53.7899	30.7617	54.3047	30.7617	54.3869	30.7617	54.9181	30.7617	54.9578	30.7617	55.4819	30.7617	55.4892	30.7617	55.9832	30.7617	55.9699	30.7617	56.4131	30.7617	56.39	30.7617	56.7663	30.7617	56.7418	30.7617	57.0402	30.7617	57.0198	30.7617	57.2345	30.7617	57.2205	30.7617	57.3494	30.7617	57.3425	30.7617	57.3854
32.2266	46.2136	32.2266	46.529	32.2266	46.0164	32.2266	46.9264	32.2266	45.9985	32.2266	47.3934	32.2266	46.2269	32.2266	47.9317	32.2266	46.7384	32.2266	48.5455	32.2266	47.5099	32.2266	49.2315	32.2266	48.466	32.2266	49.9754	32.2266	49.5138	32.2266	50.7534	32.2266	50.5731	32.2266	51.5371	32.2266	51.5873	32.2266	52.2991	32.2266	52.521	32.2266	53.0163	32.2266	53.3536	32.2266	53.6714	32.2266	54.073	32.2266	54.2527	32.2266	54.6724	32.2266	54.7523	32.2266	55.1484	32.2266	55.1645	32.2266	55.4998	32.2266	55.4845	32.2266	55.7275	32.2266	55.7069	32.2266	55.8345	32.2266	55.8257
33.6914	40.2989	33.6914	40.0471	33.6914	40.4529	33.6914	39.6073	33.6914	40.8291	33.6914	39.1963	33.6914	41.8123	33.6914	39.4216	33.6914	43.4732	33.6914	40.8129	33.6914	45.5014	33.6914	43.0394	33.6914	47.5622	33.6914	45.4412	33.6914	49.4782	33.6914	47.6776	33.6914	51.1886	33.6914	49.658	33.6914	52.6847	33.6914	51.3822	33.6914	53.9763	33.6914	52.8725	33.6914	55.0767	33.6914	54.1516	33.6914	55.9981	33.6914	55.2372	33.6914	56.7493	33.6914	56.1416	33.6914	57.3357	33.6914	56.8725	33.6914	57.7597	33.6914	57.4341	33.6914	58.0219	33.6914	57.8286	33.6914	58.1215	33.6914	58.0574
35.1563	53.1905	35.1563	53.0282	35.1563	53.3072	35.1563	52.8202	35.1563	53.405	35.1563	52.5986	35.1563	53.5327	35.1563	52.4329	35.1563	53.7522	35.1563	52.4256	35.1563	54.1206	35.1563	52.6815	35.1563	54.6665	35.1563	53.2518	35.1563	55.3765	35.1563	54.0982	35.1563	56.2015	35.1563	55.1179	35.1563	57.0787	35.1563	56.1992	35.1563	57.9498	35.1563	57.2564	35.1563	58.77	35.1563	58.2349	35.1563	59.5081	35.1563	59.1035	35.1563	60.1432	35.1563	59.8448	35.1563	60.6612	35.1563	60.4494	35.1563	61.0523	35.1563	60.9119	35.1563	61.3093	35.1563	61.2294	35.1563	61.4267	35.1563	61.4008
36.6211	63.3825	36.6211	63.3578	36.6211	63.4146	36.6211	63.3464	36.6211	63.4527	36.6211	63.3582	36.6211	63.4998	36.6211	63.406	36.6211	63.5629	36.6211	63.5027	36.6211	63.6516	36.6211	63.6592	36.6211	63.7765	36.6211	63.8807	36.6211	63.9469	36.6211	64.1648	36.6211	64.1684	36.6211	64.5013	36.6211	64.4403	36.6211	64.8734	36.6211	64.7556	36.6211	65.2604	36.6211	65.1009	36.6211	65.6408	36.6211	65.4584	36.6211	65.9939	36.6211	65.8084	36.6211	66.3019	36.6211	66.1311	36.6211	66.5499	36.6211	66.4088	36.6211	66.7268	36.6211	66.6265	36.6211	66.825	36.6211	66.773	36.6211	66.8404
38.0859	65.2401	38.0859	65.1932	38.0859	65.2527	38.0859	65.1141	38.0859	65.2332	38.0859	65.0089	38.0859	65.1874	38.0859	64.8882	38.0859	65.1253	38.0859	64.7671	38.0859	65.0602	38.0859	64.6647	38.0859	65.0085	38.0859	64.6016	38.0859	64.9875	38.0859	64.5973	38.0859	65.0129	38.0859	64.6651	38.0859	65.0952	38.0859	64.8086	38.0859	65.2366	38.0859	65.0196	38.0859	65.4293	38.0859	65.28	38.0859	65.6569	38.0859	65.5652	38.0859	65.8969	38.0859	65.8487	38.0859	66.1254	38.0859	66.1057	38.0859	66.3197	38.0859	66.3156	38.0859	66.4613	38.0859	66.4629	38.0859	66.5366	38.0859	66.5378
39.5508	71.4623	39.5508	71.4331	39.5508	71.463	39.5508	71.3756	39.5508	71.4366	39.5508	71.2922	39.5508	71.3864	39.5508	71.1871	39.5508	71.3175	39.5508	71.067	39.5508	71.2366	39.5508	70.9411	39.5508	71.1524	39.5508	70.821	39.5508	71.0743	39.5508	70.7195	39.5508	71.012	39.5508	70.6495	39.5508	70.9738	39.5508	70.6213	39.5508	70.965	39.5508	70.6399	39.5508	70.9868	39.5508	70.7033	39.5508	71.0355	39.5508	70.8027	39.5508	71.1029	39.5508	70.9233	39.5508	71.1773	39.5508	71.0483	39.5508	71.2457	39.5508	71.1611	39.5508	71.2954	39.5508	71.2483	39.5508	71.3162	39.5508	71.3011
41.0156	71.9677	41.0156	71.9795	41.0156	71.966	41.0156	72.004	41.0156	71.9741	41.0156	72.0454	41.0156	71.9938	41.0156	72.1089	41.0156	72.0288	41.0156	72.1999	41.0156	72.0844	41.0156	72.3225	41.0156	72.1664	41.0156	72.4784	41.0156	72.2799	41.0156	72.6663	41.0156	72.4281	41.0156	72.8812	41.0156	72.6109	41.0156	73.1144	41.0156	72.8245	41.0156	73.3551	41.0156	73.0607	41.0156	73.5909	41.0156	73.3081	41.0156	73.8093	41.0156	73.5531	41.0156	73.9989	41.0156	73.7816	41.0156	74.1501	41.0156	73.9808	41.0156	74.2551	41.0156	74.1396	41.0156	74.3084	41.0156	74.25	41.0156	74.307
42.4805	76.5923	42.4805	76.5888	42.4805	76.6026	42.4805	76.5923	42.4805	76.6203	42.4805	76.604	42.4805	76.647	42.4805	76.6261	42.4805	76.6847	42.4805	76.6616	42.4805	76.7356	42.4805	76.7136	42.4805	76.8016	42.4805	76.7848	42.4805	76.8841	42.4805	76.8769	42.4805	76.9834	42.4805	76.9897	42.4805	77.0983	42.4805	77.1207	42.4805	77.2261	42.4805	77.265	42.4805	77.3624	42.4805	77.4156	42.4805	77.5013	42.4805	77.564	42.4805	77.6359	42.4805	77.7015	42.4805	77.7585	42.4805	77.8197	42.4805	77.8618	42.4805	77.9114	42.4805	77.9391	42.4805	77.9713	42.4805	77.985	42.4805	77.9962
43.9453	78.4715	43.9453	78.468	43.9453	78.4876	43.9453	78.4784	43.9453	78.5155	43.9453	78.5044	43.9453	78.5551	43.9453	78.5479	43.9453	78.6066	43.9453	78.6105	43.9453	78.6704	43.9453	78.6936	43.9453	78.7471	43.9453	78.7974	43.9453	78.8371	43.9453	78.9205	43.9453	78.9403	43.9453	79.0601	43.9453	79.0558	43.9453	79.2112	43.9453	79.1817	43.9453	79.3673	43.9453	79.3149	43.9453	79.5209	43.9453	79.4511	43.9453	79.6638	43.9453	79.5848	43.9453	79.7887	43.9453	79.7099	43.9453	79.8888	43.9453	79.8197	43.9453	79.9592	43.9453	79.9081	43.9453	79.9967	43.9453	79.9695	43.9453	79.9999
45.4102	79.9319	45.4102	79.9458	45.4102	79.9256	45.4102	79.9674	45.4102	79.9267	45.4102	79.9974	45.4102	79.9352	45.4102	80.036	45.4102	79.9512	45.4102	80.0834	45.4102	79.9754	45.4102	80.1395	45.4102	80.008	45.4102	80.2037	45.4102	80.0496	45.4102	80.2749	45.4102	80.1005	45.4102	80.3513	45.4102	80.1606	45.4102	80.4305	45.4102	80.2291	45.4102	80.5095	45.4102	80.3047	45.4102	80.5848	45.4102	80.3851	45.4102	80.6527	45.4102	80.4672	45.4102	80.7095	45.4102	80.5474	45.4102	80.7518	45.4102	80.6215	45.4102	80.7768	45.4102	80.6856	45.4102	80.7826	45.4102	80.7356	45.4102	80.7686
46.875	82.1165	46.875	82.1261	46.875	82.1122	46.875	82.1408	46.875	82.1134	46.875	82.1606	46.875	82.1203	46.875	82.1858	46.875	82.1334	46.875	82.2163	46.875	82.1532	46.875	82.2521	46.875	82.18	46.875	82.2931	46.875	82.2141	46.875	82.3389	46.875	82.2555	46.875	82.3887	46.875	82.3037	46.875	82.4414	46.875	82.3576	46.875	82.4954	46.875	82.4156	46.875	82.5489	46.875	82.4757	46.875	82.5993	46.875	82.5351	46.875	82.6442	46.875	82.5908	46.875	82.6809	46.875	82.6397	46.875	82.7071	46.875	82.6791	46.875	82.7208	46.875	82.7066	46.875	82.7208
48.3398	84.0379	48.3398	84.0509	48.3398	84.0309	48.3398	84.0697	48.3398	84.0303	48.3398	84.0942	48.3398	84.0363	48.3398	84.124	48.3398	84.049	48.3398	84.159	48.3398	84.0686	48.3398	84.1987	48.3398	84.0953	48.3398	84.2425	48.3398	84.1288	48.3398	84.2899	48.3398	84.1689	48.3398	84.3397	48.3398	84.215	48.3398	84.3908	48.3398	84.2661	48.3398	84.4416	48.3398	84.3207	48.3398	84.4902	48.3398	84.3771	48.3398	84.5345	48.3398	84.4332	48.3398	84.5724	48.3398	84.4864	48.3398	84.6018	48.3398	84.5342	48.3398	84.6206	48.3398	84.5741	48.3398	84.6276	48.3398	84.6039	48.3398	84.622
51.2695	86.5401	51.2695	86.5413	51.2695	86.5435	51.2695	86.5473	51.2695	86.5515	51.2695	86.558	51.2695	86.5642	51.2695	86.5734	51.2695	86.5813	51.2695	86.5936	51.2695	86.6028	51.2695	86.6184	51.2695	86.6286	51.2695	86.6477	51.2695	86.6584	51.2695	86.6811	51.2695	86.6917	51.2695	86.7178	51.2695	86.728	51.2695	86.7571	51.2695	86.7664	51.2695	86.7978	51.2695	86.8059	51.2695	86.8383	51.2695	86.8452	51.2695	86.8771	51.2695	86.8826	51.2695	86.9122	51.2695	86.9164	51.2695	86.9419	51.2695	86.9449	51.2695	86.9646	51.2695	86.9665	51.2695	86.9789	51.2695	86.9799	51.2695	86.9841
52.7344	87.6014	52.7344	87.6027	52.7344	87.6059	52.7344	87.6099	52.7344	87.6162	52.7344	87.623	52.7344	87.632	52.7344	87.6419	52.7344	87.6532	52.7344	87.6662	52.7344	87.6794	52.7344	87.6957	52.7344	87.7102	52.7344	87.7298	52.7344	87.7452	52.7344	87.7679	52.7344	87.7836	52.7344	87.809	52.7344	87.8246	52.7344	87.852	52.7344	87.8671	52.7344	87.8957	52.7344	87.9099	52.7344	87.9385	52.7344	87.9516	52.7344	87.9789	52.7344	87.9905	52.7344	88.0151	52.7344	88.025	52.7344	88.0457	52.7344	88.0535	52.7344	88.0692	52.7344	88.0745	52.7344	88.0843	52.7344	88.087	52.7344	88.0904
54.1992	88.5266	54.1992	88.5277	54.1992	88.5312	54.1992	88.5346	54.1992	88.5415	54.1992	88.5474	54.1992	88.5572	54.1992	88.5658	54.1992	88.578	54.1992	88.5896	54.1992	88.6035	54.1992	88.6184	54.1992	88.6333	54.1992	88.6516	54.1992	88.6667	54.1992	88.6886	54.1992	88.7031	54.1992	88.7282	54.1992	88.7417	54.1992	88.7695	54.1992	88.7814	54.1992	88.8112	54.1992	88.8212	54.1992	88.8517	54.1992	88.8598	54.1992	88.8896	54.1992	88.8958	54.1992	88.9234	54.1992	88.9277	54.1992	88.9514	54.1992	88.9543	54.1992	88.9726	54.1992	88.9743	54.1992	88.9858	54.1992	88.9866	54.1992	88.9905
55.6641	89.426	55.6641	89.4299	55.6641	89.4277	55.6641	89.4395	55.6641	89.4349	55.6641	89.4544	55.6641	89.4476	55.6641	89.4745	55.6641	89.4653	55.6641	89.4992	55.6641	89.4876	55.6641	89.528	55.6641	89.5141	55.6641	89.5602	55.6641	89.5441	55.6641	89.595	55.6641	89.5768	55.6641	89.6313	55.6641	89.6115	55.6641	89.6682	55.6641	89.6472	55.6641	89.7044	55.6641	89.6829	55.6641	89.7387	55.6641	89.7175	55.6641	89.7699	55.6641	89.75	55.6641	89.7968	55.6641	89.7791	55.6641	89.8182	55.6641	89.8039	55.6641	89.8334	55.6641	89.8233	55.6641	89.8416	55.6641	89.8364	55.6641	89.8426
58.5938	90.852	58.5938	90.8573	58.5938	90.8515	58.5938	90.8673	58.5938	90.8558	58.5938	90.8815	58.5938	90.8648	58.5938	90.8996	58.5938	90.8784	58.5938	90.9209	58.5938	90.896	58.5938	90.945	58.5938	90.9172	58.5938	90.9711	58.5938	90.9413	58.5938	90.9985	58.5938	90.9675	58.5938	91.0263	58.5938	90.995	58.5938	91.0538	58.5938	91.0231	58.5938	91.0801	58.5938	91.0508	58.5938	91.1044	58.5938	91.0773	58.5938	91.126	58.5938	91.1019	58.5938	91.1441	58.5938	91.1237	58.5938	91.1581	58.5938	91.1422	58.5938	91.1677	58.5938	91.1567	58.5938	91.1724	58.5938	91.1668	58.5938	91.1721
60.0586	91.4305	60.0586	91.4341	60.0586	91.4308	60.0586	91.4415	60.0586	91.435	60.0586	91.4524	60.0586	91.443	60.0586	91.4663	60.0586	91.4546	60.0586	91.483	60.0586	91.4694	60.0586	91.5018	60.0586	91.487	60.0586	91.5222	60.0586	91.5068	60.0586	91.5436	60.0586	91.5281	60.0586	91.5654	60.0586	91.5503	60.0586	91.5868	60.0586	91.5726	60.0586	91.6074	60.0586	91.5944	60.0586	91.6265	60.0586	91.6151	60.0586	91.6436	60.0586	91.6339	60.0586	91.6582	60.0586	91.6503	60.0586	91.6698	60.0586	91.6639	60.0586	91.6781	60.0586	91.6741	60.0586	91.6828	60.0586	91.6808	60.0586	91.6837
62.9883	92.2177	62.9883	92.2204	62.9883	92.2188	62.9883	92.2266	62.9883	92.2236	62.9883	92.2361	62.9883	92.2318	62.9883	92.2487	62.9883	92.2433	62.9883	92.2639	62.9883	92.2577	62.9883	92.2811	62.9883	92.2744	62.9883	92.2998	62.9883	92.2929	62.9883	92.3193	62.9883	92.3127	62.9883	92.3391	62.9883	92.333	62.9883	92.3586	62.9883	92.3532	62.9883	92.3771	62.9883	92.3726	62.9883	92.3943	62.9883	92.3908	62.9883	92.4096	62.9883	92.4071	62.9883	92.4227	62.9883	92.421	62.9883	92.4333	62.9883	92.4322	62.9883	92.441	62.9883	92.4404	62.9883	92.4457	62.9883	92.4454	62.9883	92.4472
64.4531	92.5562	64.4531	92.5593	64.4531	92.5566	64.4531	92.5656	64.4531	92.5603	64.4531	92.5749	64.4531	92.5673	64.4531	92.5868	64.4531	92.5773	64.4531	92.6009	64.4531	92.5899	64.4531	92.6166	64.4531	92.6046	64.4531	92.6333	64.4531	92.6208	64.4531	92.6504	64.4531	92.638	64.4531	92.6674	64.4531	92.6555	64.4531	92.6838	64.4531	92.6729	64.4531	92.6992	64.4531	92.6895	64.4531	92.713	64.4531	92.7049	64.4531	92.7252	64.4531	92.7186	64.4531	92.7353	64.4531	92.7303	64.4531	92.7433	64.4531	92.7398	64.4531	92.749	64.4531	92.7468	64.4531	92.7523	64.4531	92.7512	64.4531	92.7531
67.3828	93.1256	67.3828	93.1269	67.3828	93.1268	67.3828	93.1305	67.3828	93.1303	67.3828	93.1363	67.3828	93.1362	67.3828	93.1439	67.3828	93.144	67.3828	93.1529	67.3828	93.1535	67.3828	93.1629	67.3828	93.1642	67.3828	93.1734	67.3828	93.1755	67.3828	93.184	67.3828	93.1871	67.3828	93.1943	67.3828	93.1984	67.3828	93.2039	67.3828	93.2089	67.3828	93.2127	67.3828	93.2183	67.3828	93.2204	67.3828	93.2264	67.3828	93.227	67.3828	93.2329	67.3828	93.2325	67.3828	93.2379	67.3828	93.2369	67.3828	93.2414	67.3828	93.2402	67.3828	93.2435	67.3828	93.2426	67.3828	93.2443	67.3828	93.244
68.8477	93.3306	68.8477	93.3318	68.8477	93.3321	68.8477	93.3356	68.8477	93.3365	68.8477	93.3419	68.8477	93.3436	68.8477	93.3502	68.8477	93.3531	68.8477	93.3602	68.8477	93.3647	68.8477	93.3714	68.8477	93.3777	68.8477	93.3833	68.8477	93.3918	68.8477	93.3955	68.8477	93.4061	68.8477	93.4075	68.8477	93.4202	68.8477	93.4191	68.8477	93.4334	68.8477	93.4299	68.8477	93.4452	68.8477	93.4397	68.8477	93.4553	68.8477	93.4484	68.8477	93.4634	68.8477	93.4559	68.8477	93.4694	68.8477	93.4623	68.8477	93.4733	68.8477	93.4675	68.8477	93.4753	68.8477	93.4715	68.8477	93.4756	68.8477	93.4742
