"SPL Horizontal"																																																																							
"On-Axis"		"10°"		"-10°"		"20°"		"-20°"		"30°"		"-30°"		"40°"		"-40°"		"50°"		"-50°"		"60°"		"-60°"		"70°"		"-70°"		"80°"		"-80°"		"90°"		"-90°"		"100°"		"-100°"		"110°"		"-110°"		"120°"		"-120°"		"130°"		"-130°"		"140°"		"-140°"		"150°"		"-150°"		"160°"		"-160°"		"170°"		"-170°"		"180°"	
"Frequency [Hz]"	"Sound Pessure Level [dB]  / [2.83V 1m] "	"Frequency [Hz]"	"Sound Pessure Level [dB]  / [2.83V 1m] "	"Frequency [Hz]"	"Sound Pessure Level [dB]  / [2.83V 1m] "	"Frequency [Hz]"	"Sound Pessure Level [dB]  / [2.83V 1m] "	"Frequency [Hz]"	"Sound Pessure Level [dB]  / [2.83V 1m] "	"Frequency [Hz]"	"Sound Pessure Level [dB]  / [2.83V 1m] "	"Frequency [Hz]"	"Sound Pessure Level [dB]  / [2.83V 1m] "	"Frequency [Hz]"	"Sound Pessure Level [dB]  / [2.83V 1m] "	"Frequency [Hz]"	"Sound Pessure Level [dB]  / [2.83V 1m] "	"Frequency [Hz]"	"Sound Pessure Level [dB]  / [2.83V 1m] "	"Frequency [Hz]"	"Sound Pessure Level [dB]  / [2.83V 1m] "	"Frequency [Hz]"	"Sound Pessure Level [dB]  / [2.83V 1m] "	"Frequency [Hz]"	"Sound Pessure Level [dB]  / [2.83V 1m] "	"Frequency [Hz]"	"Sound Pessure Level [dB]  / [2.83V 1m] "	"Frequency [Hz]"	"Sound Pessure Level [dB]  / [2.83V 1m] "	"Frequency [Hz]"	"Sound Pessure Level [dB]  / [2.83V 1m] "	"Frequency [Hz]"	"Sound Pessure Level [dB]  / [2.83V 1m] "	"Frequency [Hz]"	"Sound Pessure Level [dB]  / [2.83V 1m] "	"Frequency [Hz]"	"Sound Pessure Level [dB]  / [2.83V 1m] "	"Frequency [Hz]"	"Sound Pessure Level [dB]  / [2.83V 1m] "	"Frequency [Hz]"	"Sound Pessure Level [dB]  / [2.83V 1m] "	"Frequency [Hz]"	"Sound Pessure Level [dB]  / [2.83V 1m] "	"Frequency [Hz]"	"Sound Pessure Level [dB]  / [2.83V 1m] "	"Frequency [Hz]"	"Sound Pessure Level [dB]  / [2.83V 1m] "	"Frequency [Hz]"	"Sound Pessure Level [dB]  / [2.83V 1m] "	"Frequency [Hz]"	"Sound Pessure Level [dB]  / [2.83V 1m] "	"Frequency [Hz]"	"Sound Pessure Level [dB]  / [2.83V 1m] "	"Frequency [Hz]"	"Sound Pessure Level [dB]  / [2.83V 1m] "	"Frequency [Hz]"	"Sound Pessure Level [dB]  / [2.83V 1m] "	"Frequency [Hz]"	"Sound Pessure Level [dB]  / [2.83V 1m] "	"Frequency [Hz]"	"Sound Pessure Level [dB]  / [2.83V 1m] "	"Frequency [Hz]"	"Sound Pessure Level [dB]  / [2.83V 1m] "	"Frequency [Hz]"	"Sound Pessure Level [dB]  / [2.83V 1m] "	"Frequency [Hz]"	"Sound Pessure Level [dB]  / [2.83V 1m] "	"Frequency [Hz]"	"Sound Pessure Level [dB]  / [2.83V 1m] "	"Frequency [Hz]"	"Sound Pessure Level [dB]  / [2.83V 1m] "
20.5078	48.5414	20.5078	48.2796	20.5078	48.4915	20.5078	47.6821	20.5078	48.1239	20.5078	46.6893	20.5078	47.4	20.5078	45.1944	20.5078	46.2367	20.5078	43.0493	20.5078	44.4819	20.5078	40.332	20.5078	41.8968	20.5078	39.0881	20.5078	38.5813	20.5078	41.8985	20.5078	38.1806	20.5078	45.5784	20.5078	42.3022	20.5078	48.6078	20.5078	46.1913	20.5078	51.0044	20.5078	49.1762	20.5078	52.9118	20.5078	51.494	20.5078	54.4283	20.5078	53.3225	20.5078	55.6108	20.5078	54.7629	20.5078	56.4909	20.5078	55.8712	20.5078	57.0844	20.5078	56.6774	20.5078	57.3986	20.5078	57.1966	20.5078	57.4361
21.9727	47.9928	21.9727	47.7698	21.9727	47.8658	21.9727	47.1872	21.9727	47.3776	21.9727	46.2272	21.9727	46.4963	21.9727	44.9243	21.9727	45.1912	21.9727	43.5992	21.9727	43.5626	21.9727	43.2958	21.9727	42.3392	21.9727	44.9009	21.9727	43.098	21.9727	47.5011	21.9727	45.6783	21.9727	50.0776	21.9727	48.5281	21.9727	52.3297	21.9727	51.0431	21.9727	54.2366	21.9727	53.1639	21.9727	55.8303	21.9727	54.9358	21.9727	57.1413	21.9727	56.4044	21.9727	58.189	21.9727	57.6003	21.9727	58.9836	21.9727	58.5403	21.9727	59.5292	21.9727	59.2319	21.9727	59.8266	21.9727	59.6773	21.9727	59.8758
23.4375	50.1134	23.4375	49.9037	23.4375	50.0552	23.4375	49.432	23.4375	49.7305	23.4375	48.7318	23.4375	49.1535	23.4375	47.9287	23.4375	48.3847	23.4375	47.3645	23.4375	47.6211	23.4375	47.6016	23.4375	47.3136	23.4375	48.8937	23.4375	47.9829	23.4375	50.8221	23.4375	49.5916	23.4375	52.868	23.4375	51.603	23.4375	54.7727	23.4375	53.601	23.4375	56.4544	23.4375	55.4157	23.4375	57.8976	23.4375	57.0011	23.4375	59.1046	23.4375	58.3518	23.4375	60.0791	23.4375	59.4713	23.4375	60.8222	23.4375	60.362	23.4375	61.3329	23.4375	61.0235	23.4375	61.609	23.4375	61.4534	23.4375	61.6492
24.9023	52.6551	24.9023	52.5203	24.9023	52.6131	24.9023	52.2291	24.9023	52.3974	24.9023	51.8399	24.9023	52.0375	24.9023	51.4804	24.9023	51.6116	24.9023	51.3727	24.9023	51.2827	24.9023	51.768	24.9023	51.3074	24.9023	52.7554	24.9023	51.9146	24.9023	54.1706	24.9023	53.0979	24.9023	55.7572	24.9023	54.624	24.9023	57.3257	24.9023	56.2413	24.9023	58.7756	24.9023	57.7921	24.9023	60.0606	24.9023	59.2001	24.9023	61.1594	24.9023	60.4315	24.9023	62.0601	24.9023	61.4703	24.9023	62.7541	24.9023	62.3068	24.9023	63.2339	24.9023	62.9331	24.9023	63.4939	24.9023	63.3426	24.9023	63.5303
26.3672	55.6098	26.3672	55.5226	26.3672	55.5785	26.3672	55.3367	26.3672	55.4322	26.3672	55.1034	26.3672	55.2	26.3672	54.9183	26.3672	54.9474	26.3672	54.9256	26.3672	54.7905	26.3672	55.2769	26.3672	54.8885	26.3672	56.0414	26.3672	55.3805	26.3672	57.1504	26.3672	56.2881	26.3672	58.4508	26.3672	57.4974	26.3672	59.7954	26.3672	58.8435	26.3672	61.083	26.3672	60.1914	26.3672	62.2537	26.3672	61.4556	26.3672	63.2729	26.3672	62.5872	26.3672	64.1192	26.3672	63.5575	26.3672	64.777	26.3672	64.348	26.3672	65.2345	26.3672	64.9446	26.3672	65.483	26.3672	65.3369	26.3672	65.5175
27.832	58.6229	27.832	58.5678	27.832	58.6049	27.832	58.4567	27.832	58.5171	27.832	58.3303	27.832	58.3841	27.832	58.2582	27.832	58.2561	27.832	58.3352	27.832	58.2128	27.832	58.657	27.832	58.3546	27.832	59.2743	27.832	58.7685	27.832	60.1605	27.832	59.4815	27.832	61.227	27.832	60.4415	27.832	62.3682	27.832	61.5481	27.832	63.4958	27.832	62.6985	27.832	64.5468	27.832	63.8124	27.832	65.4787	27.832	64.8343	27.832	66.2626	27.832	65.7267	27.832	66.8771	27.832	66.4634	27.832	67.3064	27.832	67.0249	27.832	67.5394	27.832	67.397	27.832	67.5699
29.2969	61.5689	29.2969	61.5362	29.2969	61.5585	29.2969	61.4741	29.2969	61.5077	29.2969	61.4141	29.2969	61.436	29.2969	61.4067	29.2969	61.3813	29.2969	61.5169	29.2969	61.3999	29.2969	61.8091	29.2969	61.5591	29.2969	62.3216	29.2969	61.918	29.2969	63.0463	29.2969	62.5013	29.2969	63.9311	29.2969	63.2852	29.2969	64.9019	29.2969	64.2074	29.2969	65.8861	29.2969	65.1921	29.2969	66.8241	29.2969	66.17	29.2969	67.6708	29.2969	67.0864	29.2969	68.3924	29.2969	67.8999	29.2969	68.9635	29.2969	68.5797	29.2969	69.3651	29.2969	69.1023	29.2969	69.584	29.2969	69.4504	29.2969	69.6128
30.7617	64.2544	30.7617	64.2342	30.7617	64.2459	30.7617	64.196	30.7617	64.2109	30.7617	64.1643	30.7617	64.1644	30.7617	64.1768	30.7617	64.1356	30.7617	64.2819	30.7617	64.1665	30.7617	64.5285	30.7617	64.3074	30.7617	64.9501	30.7617	64.6046	30.7617	65.5497	30.7617	65.0831	30.7617	66.2962	30.7617	65.7345	30.7617	67.1358	30.7617	66.5184	30.7617	68.0074	30.7617	67.3768	30.7617	68.8552	30.7617	68.2493	30.7617	69.6329	30.7617	69.0829	30.7617	70.3036	30.7617	69.8343	30.7617	70.8387	30.7617	70.4696	30.7617	71.2167	30.7617	70.9623	30.7617	71.4226	30.7617	71.2929	30.7617	71.4484
32.2266	66.6343	32.2266	66.6235	32.2266	66.6288	32.2266	66.6056	32.2266	66.6089	32.2266	66.6002	32.2266	66.5871	32.2266	66.6376	32.2266	66.5866	32.2266	66.7556	32.2266	66.6406	32.2266	66.9921	32.2266	66.788	32.2266	67.3739	32.2266	67.0644	32.2266	67.9059	32.2266	67.4909	32.2266	68.5672	32.2266	68.0641	32.2266	69.3164	32.2266	68.7559	32.2266	70.1031	32.2266	69.5215	32.2266	70.8774	32.2266	70.3099	32.2266	71.5949	32.2266	71.0729	32.2266	72.2188	32.2266	71.7686	32.2266	72.7194	32.2266	72.3624	32.2266	73.0739	32.2266	72.8266	32.2266	73.2667	32.2266	73.1402	32.2266	73.2891
33.6914	68.9967	33.6914	68.997	33.6914	68.9927	33.6914	69.0008	33.6914	68.9864	33.6914	69.0243	33.6914	68.9881	33.6914	69.0911	33.6914	69.0163	33.6914	69.2301	33.6914	69.0971	33.6914	69.4696	33.6914	69.2599	33.6914	69.8298	33.6914	69.5314	33.6914	70.3147	33.6914	69.9273	33.6914	70.9092	33.6914	70.4459	33.6914	71.5819	33.6914	71.0669	33.6914	72.2919	33.6914	71.7552	33.6914	72.9961	33.6914	72.4691	33.6914	73.6542	33.6914	73.166	33.6914	74.2306	33.6914	73.807	33.6914	74.6958	33.6914	74.3583	33.6914	75.0266	33.6914	74.7919	33.6914	75.2065	33.6914	75.0862	33.6914	75.2268
35.1563	71.4889	35.1563	71.4958	35.1563	71.488	35.1563	71.5145	35.1563	71.4942	35.1563	71.5573	35.1563	71.5154	35.1563	71.6424	35.1563	71.5661	35.1563	71.7913	35.1563	71.6656	35.1563	72.0249	35.1563	71.8358	35.1563	72.3582	35.1563	72.0963	35.1563	72.7948	35.1563	72.459	35.1563	73.3243	35.1563	72.9236	35.1563	73.923	35.1563	73.4755	35.1563	74.5585	35.1563	74.0882	35.1563	75.1941	35.1563	74.7276	35.1563	75.7935	35.1563	75.3572	35.1563	76.3229	35.1563	75.9412	35.1563	76.7533	35.1563	76.4471	35.1563	77.0612	35.1563	76.8473	35.1563	77.2297	35.1563	77.1197	35.1563	77.2495
36.6211	73.8981	36.6211	73.9092	36.6211	73.8987	36.6211	73.9368	36.6211	73.9121	36.6211	73.9903	36.6211	73.9442	36.6211	74.0837	36.6211	74.0064	36.6211	74.2336	36.6211	74.1134	36.6211	74.4557	36.6211	74.2819	36.6211	74.7619	36.6211	74.5268	36.6211	75.1556	36.6211	74.8576	36.6211	75.6294	36.6211	75.2747	36.6211	76.1653	36.6211	75.7675	36.6211	76.7368	36.6211	76.3156	36.6211	77.3125	36.6211	76.8908	36.6211	77.8594	36.6211	77.4614	36.6211	78.346	36.6211	77.9947	36.6211	78.7438	36.6211	78.46	36.6211	79.0294	36.6211	78.8302	36.6211	79.1861	36.6211	79.0834	36.6211	79.2044
38.0859	76.0746	38.0859	76.0897	38.0859	76.0761	38.0859	76.1249	38.0859	76.0948	38.0859	76.1877	38.0859	76.1355	38.0859	76.2889	38.0859	76.207	38.0859	76.441	38.0859	76.3205	38.0859	76.6563	38.0859	76.4889	38.0859	76.9437	38.0859	76.7233	38.0859	77.3058	38.0859	77.0311	38.0859	77.7371	38.0859	77.4127	38.0859	78.2232	38.0859	77.8599	38.0859	78.7423	38.0859	78.3564	38.0859	79.2672	38.0859	78.8789	38.0859	79.7685	38.0859	79.3996	38.0859	80.2167	38.0859	79.8893	38.0859	80.5848	38.0859	80.3189	38.0859	80.8499	38.0859	80.6625	38.0859	80.9954	38.0859	80.8985	38.0859	81.0119
39.5508	78.0148	39.5508	78.0326	39.5508	78.0177	39.5508	78.0738	39.5508	78.0417	39.5508	78.1441	39.5508	78.0904	39.5508	78.2514	39.5508	78.1701	39.5508	78.4051	39.5508	78.2891	39.5508	78.614	39.5508	78.4567	39.5508	78.8845	39.5508	78.6811	39.5508	79.2183	39.5508	78.9676	39.5508	79.6109	39.5508	79.3163	39.5508	80.0509	39.5508	79.7211	39.5508	80.5203	39.5508	80.1689	39.5508	80.9961	39.5508	80.6407	39.5508	81.4523	39.5508	81.1127	39.5508	81.862	39.5508	81.5588	39.5508	82.1998	39.5508	81.9523	39.5508	82.4437	39.5508	82.2686	39.5508	82.5776	39.5508	82.4868	39.5508	82.5922
41.0156	79.744	41.0156	79.7675	41.0156	79.7437	41.0156	79.8161	41.0156	79.7671	41.0156	79.8936	41.0156	79.8166	41.0156	80.0054	41.0156	79.8968	41.0156	80.1576	41.0156	80.0133	41.0156	80.3562	41.0156	80.1727	41.0156	80.6057	41.0156	80.3806	41.0156	80.9072	41.0156	80.6409	41.0156	81.2575	41.0156	80.9538	41.0156	81.6478	41.0156	81.3146	41.0156	82.0641	41.0156	81.7134	41.0156	82.4872	41.0156	82.1347	41.0156	82.8946	41.0156	82.5586	41.0156	83.2621	41.0156	82.9619	41.0156	83.5659	41.0156	83.3206	41.0156	83.7852	41.0156	83.6112	41.0156	83.9042	41.0156	83.8139	41.0156	83.914
42.4805	80.8276	42.4805	80.8514	42.4805	80.8285	42.4805	80.9013	42.4805	80.8544	42.4805	80.98	42.4805	80.9069	42.4805	81.0915	42.4805	80.9891	42.4805	81.2403	42.4805	81.1052	42.4805	81.4305	42.4805	81.2596	42.4805	81.6652	42.4805	81.4565	42.4805	81.9449	42.4805	81.6985	42.4805	82.2666	42.4805	81.9856	42.4805	82.6231	42.4805	82.314	42.4805	83.0022	42.4805	82.6757	42.4805	83.3875	42.4805	83.0578	42.4805	83.759	42.4805	83.4432	42.4805	84.0948	42.4805	83.8114	42.4805	84.3728	42.4805	84.1404	42.4805	84.5735	42.4805	84.4082	42.4805	84.6819	42.4805	84.596	42.4805	84.6896
43.9453	81.4735	43.9453	81.4999	43.9453	81.473	43.9453	81.5531	43.9453	81.4985	43.9453	81.6349	43.9453	81.5512	43.9453	81.748	43.9453	81.6332	43.9453	81.8951	43.9453	81.7474	43.9453	82.0791	43.9453	81.8966	43.9453	82.3017	43.9453	82.0838	43.9453	82.5627	43.9453	82.3105	43.9453	82.8595	43.9453	82.5764	43.9453	83.1857	43.9453	82.8784	43.9453	83.5312	43.9453	83.2095	43.9453	83.8818	43.9453	83.559	43.9453	84.22	43.9453	83.9119	43.9453	84.5259	43.9453	84.25	43.9453	84.7795	43.9453	84.5533	43.9453	84.9623	43.9453	84.8015	43.9453	85.0602	43.9453	84.9766	43.9453	85.0651
45.4102	81.7543	45.4102	81.7834	45.4102	81.7517	45.4102	81.8393	45.4102	81.7756	45.4102	81.9231	45.4102	81.8269	45.4102	82.0364	45.4102	81.907	45.4102	82.1807	45.4102	82.0175	45.4102	82.3577	45.4102	82.1605	45.4102	82.5679	45.4102	82.3376	45.4102	82.811	45.4102	82.5498	45.4102	83.0842	45.4102	82.7963	45.4102	83.3823	45.4102	83.0744	45.4102	83.6966	45.4102	83.3781	45.4102	84.015	45.4102	83.6982	45.4102	84.3222	45.4102	84.0217	45.4102	84.6004	45.4102	84.3324	45.4102	84.8312	45.4102	84.612	45.4102	84.9974	45.4102	84.8418	45.4102	85.0857	45.4102	85.0048	45.4102	85.0883
46.875	81.8282	46.875	81.8584	46.875	81.825	46.875	81.9155	46.875	81.8487	46.875	82	46.875	81.8999	46.875	82.1124	46.875	81.9793	46.875	82.2535	46.875	82.0879	46.875	82.4238	46.875	82.2266	46.875	82.623	46.875	82.3961	46.875	82.8504	46.875	82.5965	46.875	83.1032	46.875	82.8269	46.875	83.377	46.875	83.0844	46.875	83.6643	46.875	83.364	46.875	83.9546	46.875	83.6575	46.875	84.2346	46.875	83.9538	46.875	84.4885	46.875	84.2385	46.875	84.6993	46.875	84.4951	46.875	84.8513	46.875	84.7063	46.875	84.9319	46.875	84.8566	46.875	84.9338
48.3398	81.8054	48.3398	81.8357	48.3398	81.802	48.3398	81.8929	48.3398	81.8258	48.3398	81.9767	48.3398	81.8769	48.3398	82.0871	48.3398	81.9555	48.3398	82.224	48.3398	82.062	48.3398	82.3869	48.3398	82.1964	48.3398	82.5754	48.3398	82.3586	48.3398	82.7879	48.3398	82.5482	48.3398	83.022	48.3398	82.7637	48.3398	83.2737	48.3398	83.0026	48.3398	83.5365	48.3398	83.2602	48.3398	83.8016	48.3398	83.5294	48.3398	84.0571	48.3398	83.8006	48.3398	84.2889	48.3398	84.061	48.3398	84.4819	48.3398	84.2958	48.3398	84.6214	48.3398	84.4892	48.3398	84.6955	48.3398	84.6269	48.3398	84.6976
51.2695	81.6876	51.2695	81.716	51.2695	81.6867	51.2695	81.7715	51.2695	81.7132	51.2695	81.8533	51.2695	81.767	51.2695	81.9601	51.2695	81.8472	51.2695	82.0906	51.2695	81.9528	51.2695	82.2431	51.2695	82.0825	51.2695	82.4158	51.2695	82.2351	51.2695	82.6066	51.2695	82.4086	51.2695	82.8127	51.2695	82.6012	51.2695	83.0306	51.2695	82.8101	51.2695	83.2551	51.2695	83.0314	51.2695	83.4796	51.2695	83.2598	51.2695	83.6949	51.2695	83.4879	51.2695	83.89	51.2695	83.7058	51.2695	84.0526	51.2695	83.9019	51.2695	84.1705	51.2695	84.0633	51.2695	84.2337	51.2695	84.1779	51.2695	84.2364
52.7344	81.6964	52.7344	81.7248	52.7344	81.6954	52.7344	81.78	52.7344	81.7217	52.7344	81.8608	52.7344	81.7748	52.7344	81.9656	52.7344	81.8537	52.7344	82.0926	52.7344	81.9569	52.7344	82.2395	52.7344	82.0827	52.7344	82.4041	52.7344	82.229	52.7344	82.5838	52.7344	82.3938	52.7344	82.7759	52.7344	82.5748	52.7344	82.9769	52.7344	82.7691	52.7344	83.1824	52.7344	82.9733	52.7344	83.3865	52.7344	83.1825	52.7344	83.5815	52.7344	83.3904	52.7344	83.7579	52.7344	83.5885	52.7344	83.9048	52.7344	83.7665	52.7344	84.0112	52.7344	83.9131	52.7344	84.0683	52.7344	84.0172	52.7344	84.0704
54.1992	81.733	54.1992	81.7617	54.1992	81.7315	54.1992	81.817	54.1992	81.7574	54.1992	81.8974	54.1992	81.8099	54.1992	82.001	54.1992	81.8878	54.1992	82.1254	54.1992	81.9891	54.1992	82.268	54.1992	82.1118	54.1992	82.4259	54.1992	82.2533	54.1992	82.5965	54.1992	82.4113	54.1992	82.7767	54.1992	82.583	54.1992	82.9633	54.1992	82.7655	54.1992	83.1524	54.1992	82.9556	54.1992	83.339	54.1992	83.1488	54.1992	83.5163	54.1992	83.3396	54.1992	83.6763	54.1992	83.5206	54.1992	83.8093	54.1992	83.6828	54.1992	83.9056	54.1992	83.8161	54.1992	83.9573	54.1992	83.9107	54.1992	83.9591
55.6641	81.7811	55.6641	81.8094	55.6641	81.7799	55.6641	81.8638	55.6641	81.8058	55.6641	81.9429	55.6641	81.858	55.6641	82.0443	55.6641	81.935	55.6641	82.1654	55.6641	82.0346	55.6641	82.303	55.6641	82.1544	55.6641	82.4543	55.6641	82.2915	55.6641	82.616	55.6641	82.443	55.6641	82.7852	55.6641	82.606	55.6641	82.9587	55.6641	82.7775	55.6641	83.133	55.6641	82.9542	55.6641	83.3037	55.6641	83.1322	55.6641	83.465	55.6641	83.3065	55.6641	83.61	55.6641	83.471	55.6641	83.7303	55.6641	83.6177	55.6641	83.8175	55.6641	83.7379	55.6641	83.8644	55.6641	83.8231	55.6641	83.8664
58.5938	81.9408	58.5938	81.9654	58.5938	81.9431	58.5938	82.0158	58.5938	81.9719	58.5938	82.0903	58.5938	82.0262	58.5938	82.1862	58.5938	82.1039	58.5938	82.3002	58.5938	82.2023	58.5938	82.4289	58.5938	82.318	58.5938	82.5684	58.5938	82.4476	58.5938	82.7151	58.5938	82.5875	58.5938	82.8656	58.5938	82.7343	58.5938	83.0167	58.5938	82.8847	58.5938	83.1654	58.5938	83.0358	58.5938	83.3081	58.5938	83.1844	58.5938	83.441	58.5938	83.327	58.5938	83.5591	58.5938	83.4591	58.5938	83.6566	58.5938	83.5755	58.5938	83.7274	58.5938	83.6699	58.5938	83.766	58.5938	83.7361	58.5938	83.769
60.0586	82.1573	60.0586	82.1818	60.0586	82.1586	60.0586	82.231	60.0586	82.1854	60.0586	82.3031	60.0586	82.2365	60.0586	82.3952	60.0586	82.31	60.0586	82.504	60.0586	82.4029	60.0586	82.6256	60.0586	82.5117	60.0586	82.7562	60.0586	82.6329	60.0586	82.8919	60.0586	82.7626	60.0586	83.0293	60.0586	82.8974	60.0586	83.1652	60.0586	83.0341	60.0586	83.2969	60.0586	83.1697	60.0586	83.4217	60.0586	83.3016	60.0586	83.5364	60.0586	83.427	60.0586	83.6372	60.0586	83.5423	60.0586	83.7198	60.0586	83.6434	60.0586	83.7791	60.0586	83.7253	60.0586	83.8109	60.0586	83.783	60.0586	83.8123
62.9883	82.4539	62.9883	82.4751	62.9883	82.4572	62.9883	82.5199	62.9883	82.4848	62.9883	82.5861	62.9883	82.5354	62.9883	82.6709	62.9883	82.6069	62.9883	82.7707	62.9883	82.6959	62.9883	82.8813	62.9883	82.7989	62.9883	82.9986	62.9883	82.9118	62.9883	83.1185	62.9883	83.0304	62.9883	83.2375	62.9883	83.1509	62.9883	83.3525	62.9883	83.2698	62.9883	83.4612	62.9883	83.3843	62.9883	83.5616	62.9883	83.4921	62.9883	83.6521	62.9883	83.5911	62.9883	83.7307	62.9883	83.6793	62.9883	83.7948	62.9883	83.7543	62.9883	83.8414	62.9883	83.8133	62.9883	83.8678	62.9883	83.8533	62.9883	83.8719
64.4531	82.4795	64.4531	82.499	64.4531	82.4846	64.4531	82.5422	64.4531	82.5142	64.4531	82.6071	64.4531	82.5667	64.4531	82.6907	64.4531	82.6397	64.4531	82.7892	64.4531	82.73	64.4531	82.8983	64.4531	82.8335	64.4531	83.0136	64.4531	82.946	64.4531	83.1308	64.4531	83.063	64.4531	83.2461	64.4531	83.1803	64.4531	83.3562	64.4531	83.2945	64.4531	83.4589	64.4531	83.4025	64.4531	83.5523	64.4531	83.5022	64.4531	83.6351	64.4531	83.5918	64.4531	83.7059	64.4531	83.6699	64.4531	83.7632	64.4531	83.7351	64.4531	83.8048	64.4531	83.7854	64.4531	83.8287	64.4531	83.8188	64.4531	83.8335
67.3828	82.6724	67.3828	82.6889	67.3828	82.68	67.3828	82.7285	67.3828	82.7112	67.3828	82.7892	67.3828	82.7645	67.3828	82.868	67.3828	82.8373	67.3828	82.9608	67.3828	82.9259	67.3828	83.0633	67.3828	83.0262	67.3828	83.1705	67.3828	83.1333	67.3828	83.2779	67.3828	83.2427	67.3828	83.3812	67.3828	83.3497	67.3828	83.4771	67.3828	83.4505	67.3828	83.5632	67.3828	83.5422	67.3828	83.6383	67.3828	83.6228	67.3828	83.7019	67.3828	83.6914	67.3828	83.7541	67.3828	83.7476	67.3828	83.7952	67.3828	83.7915	67.3828	83.8251	67.3828	83.8231	67.3828	83.8432	67.3828	83.8423	67.3828	83.849
68.8477	82.8689	68.8477	82.884	68.8477	82.8765	68.8477	82.9212	68.8477	82.9066	68.8477	82.9782	68.8477	82.9577	68.8477	83.0521	68.8477	83.0271	68.8477	83.139	68.8477	83.1115	68.8477	83.2344	68.8477	83.2065	68.8477	83.3335	68.8477	83.3073	68.8477	83.4316	68.8477	83.4092	68.8477	83.5246	68.8477	83.5077	68.8477	83.6091	68.8477	83.5989	68.8477	83.6831	68.8477	83.6797	68.8477	83.7456	68.8477	83.7484	68.8477	83.7968	68.8477	83.8042	68.8477	83.8376	68.8477	83.8476	68.8477	83.8691	68.8477	83.8792	68.8477	83.892	68.8477	83.9001	68.8477	83.9068	68.8477	83.9113	68.8477	83.9134
