"SPL Horizontal"																																																																							
"On-Axis"		"10°"		"-10°"		"20°"		"-20°"		"30°"		"-30°"		"40°"		"-40°"		"50°"		"-50°"		"60°"		"-60°"		"70°"		"-70°"		"80°"		"-80°"		"90°"		"-90°"		"100°"		"-100°"		"110°"		"-110°"		"120°"		"-120°"		"130°"		"-130°"		"140°"		"-140°"		"150°"		"-150°"		"160°"		"-160°"		"170°"		"-170°"		"180°"	
"Frequency [Hz]"	"Sound Pessure Level [dB]  / [2.83V 1m] "	"Frequency [Hz]"	"Sound Pessure Level [dB]  / [2.83V 1m] "	"Frequency [Hz]"	"Sound Pessure Level [dB]  / [2.83V 1m] "	"Frequency [Hz]"	"Sound Pessure Level [dB]  / [2.83V 1m] "	"Frequency [Hz]"	"Sound Pessure Level [dB]  / [2.83V 1m] "	"Frequency [Hz]"	"Sound Pessure Level [dB]  / [2.83V 1m] "	"Frequency [Hz]"	"Sound Pessure Level [dB]  / [2.83V 1m] "	"Frequency [Hz]"	"Sound Pessure Level [dB]  / [2.83V 1m] "	"Frequency [Hz]"	"Sound Pessure Level [dB]  / [2.83V 1m] "	"Frequency [Hz]"	"Sound Pessure Level [dB]  / [2.83V 1m] "	"Frequency [Hz]"	"Sound Pessure Level [dB]  / [2.83V 1m] "	"Frequency [Hz]"	"Sound Pessure Level [dB]  / [2.83V 1m] "	"Frequency [Hz]"	"Sound Pessure Level [dB]  / [2.83V 1m] "	"Frequency [Hz]"	"Sound Pessure Level [dB]  / [2.83V 1m] "	"Frequency [Hz]"	"Sound Pessure Level [dB]  / [2.83V 1m] "	"Frequency [Hz]"	"Sound Pessure Level [dB]  / [2.83V 1m] "	"Frequency [Hz]"	"Sound Pessure Level [dB]  / [2.83V 1m] "	"Frequency [Hz]"	"Sound Pessure Level [dB]  / [2.83V 1m] "	"Frequency [Hz]"	"Sound Pessure Level [dB]  / [2.83V 1m] "	"Frequency [Hz]"	"Sound Pessure Level [dB]  / [2.83V 1m] "	"Frequency [Hz]"	"Sound Pessure Level [dB]  / [2.83V 1m] "	"Frequency [Hz]"	"Sound Pessure Level [dB]  / [2.83V 1m] "	"Frequency [Hz]"	"Sound Pessure Level [dB]  / [2.83V 1m] "	"Frequency [Hz]"	"Sound Pessure Level [dB]  / [2.83V 1m] "	"Frequency [Hz]"	"Sound Pessure Level [dB]  / [2.83V 1m] "	"Frequency [Hz]"	"Sound Pessure Level [dB]  / [2.83V 1m] "	"Frequency [Hz]"	"Sound Pessure Level [dB]  / [2.83V 1m] "	"Frequency [Hz]"	"Sound Pessure Level [dB]  / [2.83V 1m] "	"Frequency [Hz]"	"Sound Pessure Level [dB]  / [2.83V 1m] "	"Frequency [Hz]"	"Sound Pessure Level [dB]  / [2.83V 1m] "	"Frequency [Hz]"	"Sound Pessure Level [dB]  / [2.83V 1m] "	"Frequency [Hz]"	"Sound Pessure Level [dB]  / [2.83V 1m] "	"Frequency [Hz]"	"Sound Pessure Level [dB]  / [2.83V 1m] "	"Frequency [Hz]"	"Sound Pessure Level [dB]  / [2.83V 1m] "	"Frequency [Hz]"	"Sound Pessure Level [dB]  / [2.83V 1m] "	"Frequency [Hz]"	"Sound Pessure Level [dB]  / [2.83V 1m] "
20.5078	63.0788	20.5078	63.0565	20.5078	63.0005	20.5078	62.9392	20.5078	62.8188	20.5078	62.736	20.5078	62.5336	20.5078	62.4633	20.5078	62.1506	20.5078	62.1488	20.5078	61.6865	20.5078	61.8376	20.5078	61.18	20.5078	61.5961	20.5078	60.707	20.5078	61.5056	20.5078	60.3892	20.5078	61.6381	20.5078	60.37	20.5078	62.0197	20.5078	60.7368	20.5078	62.6123	20.5078	61.4495	20.5078	63.3304	20.5078	62.365	20.5078	64.0777	20.5078	63.3263	20.5078	64.7718	20.5078	64.2165	20.5078	65.3523	20.5078	64.9652	20.5078	65.7776	20.5078	65.5338	20.5078	66.0207	20.5078	65.903	20.5078	66.0652
21.9727	62.7162	21.9727	62.5747	21.9727	62.6845	21.9727	62.2641	21.9727	62.4761	21.9727	61.7935	21.9727	62.0883	21.9727	61.1885	21.9727	61.5258	21.9727	60.5162	21.9727	60.8168	21.9727	59.9252	21.9727	60.0523	21.9727	59.6674	21.9727	59.4473	21.9727	59.9941	21.9727	59.3476	21.9727	60.9308	21.9727	60.0007	21.9727	62.245	21.9727	61.2715	21.9727	63.6634	21.9727	62.7985	21.9727	65.0091	21.9727	64.3013	21.9727	66.1946	21.9727	65.6417	21.9727	67.1811	21.9727	66.7656	21.9727	67.9505	21.9727	67.6546	21.9727	68.4935	21.9727	68.3035	21.9727	68.8038	21.9727	68.7108	21.9727	68.8771
23.4375	63.4822	23.4375	63.3959	23.4375	63.4292	23.4375	63.1854	23.4375	63.2361	23.4375	62.8857	23.4375	62.9182	23.4375	62.565	23.4375	62.52	23.4375	62.3393	23.4375	62.1374	23.4375	62.3657	23.4375	61.9371	23.4375	62.7793	23.4375	62.1233	23.4375	63.6001	23.4375	62.8111	23.4375	64.7144	23.4375	63.9208	23.4375	65.9589	23.4375	65.2484	23.4375	67.1992	23.4375	66.6054	23.4375	68.3502	23.4375	67.8737	23.4375	69.3633	23.4375	68.9918	23.4375	70.2112	23.4375	69.9307	23.4375	70.8777	23.4375	70.6763	23.4375	71.352	23.4375	71.2216	23.4375	71.6269	23.4375	71.5628	23.4375	71.6979
24.9023	66.2922	24.9023	66.1534	24.9023	66.2852	24.9023	65.8783	24.9023	66.1303	24.9023	65.4888	24.9023	65.8329	24.9023	65.0312	24.9023	65.4128	24.9023	64.5952	24.9023	64.9198	24.9023	64.3273	24.9023	64.4588	24.9023	64.4029	24.9023	64.2075	24.9023	64.9273	24.9023	64.371	24.9023	65.8484	24.9023	65.0432	24.9023	66.9987	24.9023	66.116	24.9023	68.207	24.9023	67.3748	24.9023	69.3549	24.9023	68.6356	24.9023	70.3744	24.9023	69.7871	24.9023	71.2288	24.9023	70.7727	24.9023	71.8976	24.9023	71.5651	24.9023	72.3683	24.9023	72.1515	24.9023	72.633	24.9023	72.5261	24.9023	72.6865
26.3672	67.4941	26.3672	67.3883	26.3672	67.4812	26.3672	67.1792	26.3672	67.3485	26.3672	66.9014	26.3672	67.1093	26.3672	66.6189	26.3672	66.7995	26.3672	66.4341	26.3672	66.491	26.3672	66.477	26.3672	66.3035	26.3672	66.8545	26.3672	66.3893	26.3672	67.5824	26.3672	66.8623	26.3672	68.5719	26.3672	67.7142	26.3672	69.6887	26.3672	68.8179	26.3672	70.8145	26.3672	70.0145	26.3672	71.8684	26.3672	71.18	26.3672	72.8011	26.3672	72.2373	26.3672	73.5831	26.3672	73.1432	26.3672	74.1961	26.3672	73.8743	26.3672	74.628	26.3672	74.4176	26.3672	74.8701	26.3672	74.7663	26.3672	74.9172
27.832	69.1159	27.832	69.0185	27.832	69.0978	27.832	68.821	27.832	68.9628	27.832	68.5572	27.832	68.7241	27.832	68.2884	27.832	68.4168	27.832	68.1121	27.832	68.1117	27.832	68.151	27.832	67.9262	27.832	68.5082	27.832	68.0089	27.832	69.2034	27.832	68.4717	27.832	70.1572	27.832	69.3076	27.832	71.2431	27.832	70.3935	27.832	72.3452	27.832	71.5735	27.832	73.3823	27.832	72.7243	27.832	74.3036	27.832	73.769	27.832	75.0784	27.832	74.6641	27.832	75.6874	27.832	75.386	27.832	76.1178	27.832	75.9216	27.832	76.3608	27.832	76.2642	27.832	76.4105
29.2969	71.1513	29.2969	71.0609	29.2969	71.1451	29.2969	70.8881	29.2969	71.0417	29.2969	70.6639	29.2969	70.8541	29.2969	70.4426	29.2969	70.6148	29.2969	70.3062	29.2969	70.3842	29.2969	70.355	29.2969	70.2563	29.2969	70.6735	29.2969	70.3459	29.2969	71.2838	29.2969	70.7419	29.2969	72.1299	29.2969	71.4517	29.2969	73.11	29.2969	72.3926	29.2969	74.1223	29.2969	73.4419	29.2969	75.0887	29.2969	74.4898	29.2969	75.9565	29.2969	75.4585	29.2969	76.692	29.2969	76.2997	29.2969	77.2732	29.2969	76.9845	29.2969	77.6852	29.2969	77.496	29.2969	77.918	29.2969	77.8245	29.2969	77.9654
30.7617	72.5066	30.7617	72.4241	30.7617	72.4975	30.7617	72.2636	30.7617	72.3971	30.7617	72.0552	30.7617	72.2204	30.7617	71.852	30.7617	72.0023	30.7617	71.733	30.7617	71.8053	30.7617	71.7943	30.7617	71.7226	30.7617	72.1159	30.7617	71.8617	30.7617	72.7193	30.7617	72.2987	30.7617	73.5523	30.7617	73.0299	30.7617	74.5188	30.7617	73.9713	30.7617	75.5209	30.7617	75.0071	30.7617	76.4821	30.7617	76.0347	30.7617	77.35	30.7617	76.982	30.7617	78.09	30.7617	77.803	30.7617	78.6792	30.7617	78.4697	30.7617	79.1015	30.7617	78.965	30.7617	79.3462	30.7617	79.279	30.7617	79.4063
32.2266	74.5198	32.2266	74.441	32.2266	74.5224	32.2266	74.2992	32.2266	74.4487	32.2266	74.1223	32.2266	74.3114	32.2266	73.9573	32.2266	74.14	32.2266	73.8715	32.2266	73.9857	32.2266	73.9437	32.2266	73.9227	32.2266	74.2393	32.2266	74.037	32.2266	74.7781	32.2266	74.3949	32.2266	75.5219	32.2266	75.0067	32.2266	76.393	32.2266	75.818	32.2266	77.3067	32.2266	76.7371	32.2266	78.1919	32.2266	77.6726	32.2266	78.9966	32.2266	78.5527	32.2266	79.6851	32.2266	79.3278	32.2266	80.2328	32.2266	79.9655	32.2266	80.6229	32.2266	80.4456	32.2266	80.8439	32.2266	80.7556	32.2266	80.889
33.6914	76.4144	33.6914	76.3498	33.6914	76.4217	33.6914	76.2405	33.6914	76.3708	33.6914	76.1125	33.6914	76.2734	33.6914	76.0069	33.6914	76.1553	33.6914	75.979	33.6914	76.0598	33.6914	76.0899	33.6914	76.0468	33.6914	76.3876	33.6914	76.1825	33.6914	76.886	33.6914	76.5181	33.6914	77.5563	33.6914	77.0637	33.6914	78.3385	33.6914	77.7814	33.6914	79.1635	33.6914	78.6008	33.6914	79.9692	33.6914	79.4457	33.6914	80.707	33.6914	80.2511	33.6914	81.3414	33.6914	80.9687	33.6914	81.8472	33.6914	81.565	33.6914	82.2066	33.6914	82.0179	33.6914	82.4079	33.6914	82.3135	33.6914	82.4443
35.1563	77.9782	35.1563	77.9338	35.1563	77.9748	35.1563	77.853	35.1563	77.923	35.1563	77.7595	35.1563	77.8338	35.1563	77.6893	35.1563	77.7317	35.1563	77.6901	35.1563	77.6559	35.1563	77.8131	35.1563	77.6596	35.1563	78.0986	35.1563	77.8007	35.1563	78.5595	35.1563	78.1229	35.1563	79.1739	35.1563	78.6358	35.1563	79.8925	35.1563	79.3072	35.1563	80.6556	35.1563	80.0759	35.1563	81.4068	35.1563	80.8732	35.1563	82.0998	35.1563	81.638	35.1563	82.6993	35.1563	82.3233	35.1563	83.1792	35.1563	82.8954	35.1563	83.5211	35.1563	83.3317	35.1563	83.7123	35.1563	83.6177	35.1563	83.7454
36.6211	79.6798	36.6211	79.6401	36.6211	79.6762	36.6211	79.5662	36.6211	79.6296	36.6211	79.4772	36.6211	79.5499	36.6211	79.4031	36.6211	79.4585	36.6211	79.3834	36.6211	79.389	36.6211	79.463	36.6211	79.3865	36.6211	79.6806	36.6211	79.5001	36.6211	80.0552	36.6211	79.7695	36.6211	80.5769	36.6211	80.2078	36.6211	81.2088	36.6211	80.7934	36.6211	81.8992	36.6211	81.4773	36.6211	82.5943	36.6211	82.1988	36.6211	83.2471	36.6211	82.9004	36.6211	83.8199	36.6211	83.5354	36.6211	84.2843	36.6211	84.0686	36.6211	84.6198	36.6211	84.4754	36.6211	84.8121	36.6211	84.7399	36.6211	84.8531
38.0859	81.0388	38.0859	80.9929	38.0859	81.0487	38.0859	80.9202	38.0859	81.0225	38.0859	80.8388	38.0859	80.9691	38.0859	80.7771	38.0859	80.9076	38.0859	80.7714	38.0859	80.8675	38.0859	80.8617	38.0859	80.8876	38.0859	81.0819	38.0859	81.01	38.0859	81.4475	38.0859	81.2689	38.0859	81.9485	38.0859	81.6767	38.0859	82.5512	38.0859	82.2174	38.0859	83.2085	38.0859	82.8503	38.0859	83.8709	38.0859	83.5222	38.0859	84.4943	38.0859	84.1806	38.0859	85.0427	38.0859	84.7806	38.0859	85.4884	38.0859	85.2872	38.0859	85.811	38.0859	85.6754	38.0859	85.9965	38.0859	85.9283	38.0859	86.0364
39.5508	82.5287	39.5508	82.4994	39.5508	82.5349	39.5508	82.4551	39.5508	82.5175	39.5508	82.4118	39.5508	82.4841	39.5508	82.3929	39.5508	82.4507	39.5508	82.4276	39.5508	82.4418	39.5508	82.5461	39.5508	82.489	39.5508	82.7731	39.5508	82.6258	39.5508	83.1193	39.5508	82.8788	39.5508	83.5765	39.5508	83.2585	39.5508	84.1188	39.5508	83.7527	39.5508	84.7089	39.5508	84.3289	39.5508	85.3061	39.5508	84.9429	39.5508	85.8717	39.5508	85.5487	39.5508	86.3728	39.5508	86.1047	39.5508	86.7823	39.5508	86.5775	39.5508	87.0797	39.5508	86.942	39.5508	87.2503	39.5508	87.1812	39.5508	87.2851
41.0156	84.0253	41.0156	83.9978	41.0156	84.0307	41.0156	83.9553	41.0156	84.0135	41.0156	83.9116	41.0156	83.9803	41.0156	83.8867	41.0156	83.9448	41.0156	83.906	41.0156	83.9283	41.0156	83.9965	41.0156	83.9583	41.0156	84.1812	41.0156	84.0647	41.0156	84.4727	41.0156	84.2729	41.0156	84.8678	41.0156	84.595	41.0156	85.3467	41.0156	85.0244	41.0156	85.8777	41.0156	85.5353	41.0156	86.4235	41.0156	86.0893	41.0156	86.9468	41.0156	86.6439	41.0156	87.4144	41.0156	87.159	41.0156	87.7989	41.0156	87.6011	41.0156	88.0788	41.0156	87.9446	41.0156	88.2392	41.0156	88.1714	41.0156	88.2709
42.4805	85.3845	42.4805	85.3667	42.4805	85.3833	42.4805	85.3354	42.4805	85.3631	42.4805	85.3021	42.4805	85.3302	42.4805	85.2835	42.4805	85.2969	42.4805	85.3011	42.4805	85.282	42.4805	85.3783	42.4805	85.3094	42.4805	85.5361	42.4805	85.4049	42.4805	85.7877	42.4805	85.5907	42.4805	86.1334	42.4805	85.8785	42.4805	86.5589	42.4805	86.2639	42.4805	87.0378	42.4805	86.726	42.4805	87.5366	42.4805	87.2315	42.4805	88.0204	42.4805	87.7421	42.4805	88.4566	42.4805	88.2203	42.4805	88.8175	42.4805	88.6335	42.4805	89.0816	42.4805	88.9561	42.4805	89.2333	42.4805	89.1698	42.4805	89.2636
43.9453	86.3334	43.9453	86.3161	43.9453	86.3356	43.9453	86.2893	43.9453	86.323	43.9453	86.2637	43.9453	86.3013	43.9453	86.2549	43.9453	86.2818	43.9453	86.2826	43.9453	86.2816	43.9453	86.3683	43.9453	86.3221	43.9453	86.5306	43.9453	86.4263	43.9453	86.7808	43.9453	86.6137	43.9453	87.1185	43.9453	86.8944	43.9453	87.5302	43.9453	87.2645	43.9453	87.9912	43.9453	87.7054	43.9453	88.4704	43.9453	88.1869	43.9453	88.9349	43.9453	88.6737	43.9453	89.3538	43.9453	89.1303	43.9453	89.7009	43.9453	89.5258	43.9453	89.955	43.9453	89.8351	43.9453	90.1011	43.9453	90.0403	43.9453	90.1304
45.4102	87.5091	45.4102	87.4919	45.4102	87.5152	45.4102	87.4685	45.4102	87.5101	45.4102	87.4483	45.4102	87.4984	45.4102	87.4449	45.4102	87.4896	45.4102	87.4752	45.4102	87.4982	45.4102	87.5572	45.4102	87.5422	45.4102	87.7069	45.4102	87.6409	45.4102	87.9342	45.4102	87.8112	45.4102	88.2393	45.4102	88.0626	45.4102	88.6115	45.4102	88.3932	45.4102	89.0301	45.4102	88.7884	45.4102	89.4679	45.4102	89.223	45.4102	89.8952	45.4102	89.6657	45.4102	90.2831	45.4102	90.0843	45.4102	90.6062	45.4102	90.4491	45.4102	90.844	45.4102	90.7357	45.4102	90.9814	45.4102	90.9263	45.4102	91.0096
46.875	88.5622	46.875	88.5508	46.875	88.5663	46.875	88.5361	46.875	88.563	46.875	88.5264	46.875	88.5564	46.875	88.5332	46.875	88.5551	46.875	88.5707	46.875	88.5713	46.875	88.6542	46.875	88.6207	46.875	88.7971	46.875	88.7198	46.875	89.0081	46.875	88.883	46.875	89.2878	46.875	89.1184	46.875	89.6278	46.875	89.4246	46.875	90.0108	46.875	89.7893	46.875	90.413	46.875	90.1904	46.875	90.8077	46.875	90.6	46.875	91.1681	46.875	90.9885	46.875	91.4699	46.875	91.3282	46.875	91.6932	46.875	91.5957	46.875	91.823	46.875	91.7734	46.875	91.8506
48.3398	89.4504	48.3398	89.4399	48.3398	89.455	48.3398	89.4273	48.3398	89.4539	48.3398	89.4197	48.3398	89.4511	48.3398	89.4275	48.3398	89.4542	48.3398	89.4636	48.3398	89.4747	48.3398	89.5418	48.3398	89.5266	48.3398	89.6748	48.3398	89.6246	48.3398	89.871	48.3398	89.7819	48.3398	90.1319	48.3398	90.0057	48.3398	90.4503	48.3398	90.295	48.3398	90.811	48.3398	90.6387	48.3398	91.192	48.3398	91.017	48.3398	91.5683	48.3398	91.4038	48.3398	91.914	48.3398	91.7712	48.3398	92.2056	48.3398	92.0926	48.3398	92.423	48.3398	92.3452	48.3398	92.5515	48.3398	92.5119	48.3398	92.5821
51.2695	91.1091	51.2695	91.1021	51.2695	91.1168	51.2695	91.0988	51.2695	91.1252	51.2695	91.1047	51.2695	91.137	51.2695	91.1276	51.2695	91.1579	51.2695	91.177	51.2695	91.1959	51.2695	91.2627	51.2695	91.2611	51.2695	91.3939	51.2695	91.3638	51.2695	91.5761	51.2695	91.5132	51.2695	91.8102	51.2695	91.7146	51.2695	92.0907	51.2695	91.9675	51.2695	92.4055	51.2695	92.2637	51.2695	92.7374	51.2695	92.5884	51.2695	93.0655	51.2695	92.9213	51.2695	93.3677	51.2695	93.2392	51.2695	93.6231	51.2695	93.5192	51.2695	93.8137	51.2695	93.741	51.2695	93.926	51.2695	93.8886	51.2695	93.9517
52.7344	91.8759	52.7344	91.8709	52.7344	91.8833	52.7344	91.8709	52.7344	91.8931	52.7344	91.8807	52.7344	91.9076	52.7344	91.907	52.7344	91.9316	52.7344	91.9579	52.7344	91.9722	52.7344	92.0421	52.7344	92.0379	52.7344	92.1672	52.7344	92.1378	52.7344	92.3382	52.7344	92.2797	52.7344	92.5559	52.7344	92.4682	52.7344	92.8156	52.7344	92.703	52.7344	93.1069	52.7344	92.9773	52.7344	93.4144	52.7344	93.2778	52.7344	93.7191	52.7344	93.5864	52.7344	94.0007	52.7344	93.8819	52.7344	94.2393	52.7344	94.143	52.7344	94.4179	52.7344	94.3503	52.7344	94.5233	52.7344	94.4885	52.7344	94.5475
54.1992	92.5507	54.1992	92.5475	54.1992	92.5582	54.1992	92.5508	54.1992	92.5699	54.1992	92.5647	54.1992	92.588	54.1992	92.5949	54.1992	92.6164	54.1992	92.6484	54.1992	92.661	54.1992	92.7322	54.1992	92.7292	54.1992	92.8529	54.1992	92.8284	54.1992	93.0147	54.1992	92.9653	54.1992	93.2184	54.1992	93.1439	54.1992	93.46	54.1992	93.3637	54.1992	93.7303	54.1992	93.6187	54.1992	94.0158	54.1992	93.8974	54.1992	94.2992	54.1992	94.1835	54.1992	94.5618	54.1992	94.4576	54.1992	94.7851	54.1992	94.7001	54.1992	94.9528	54.1992	94.8929	54.1992	95.0522	54.1992	95.0213	54.1992	95.0757
55.6641	93.1604	55.6641	93.1594	55.6641	93.1673	55.6641	93.1663	55.6641	93.18	55.6641	93.1844	55.6641	93.2005	55.6641	93.2188	55.6641	93.2322	55.6641	93.2753	55.6641	93.2802	55.6641	93.3601	55.6641	93.3508	55.6641	93.4787	55.6641	93.4504	55.6641	93.6348	55.6641	93.5848	55.6641	93.8289	55.6641	93.757	55.6641	94.0574	55.6641	93.9667	55.6641	94.3122	55.6641	94.2082	55.6641	94.5807	55.6641	94.4712	55.6641	94.8475	55.6641	94.7406	55.6641	95.0949	55.6641	94.9988	55.6641	95.3056	55.6641	95.2273	55.6641	95.4642	55.6641	95.409	55.6641	95.5585	55.6641	95.53	55.6641	95.5811
58.5938	94.3495	58.5938	94.3513	58.5938	94.3563	58.5938	94.363	58.5938	94.3718	58.5938	94.3869	58.5938	94.3972	58.5938	94.4264	58.5938	94.4347	58.5938	94.4855	58.5938	94.4878	58.5938	94.5681	58.5938	94.5608	58.5938	94.6782	58.5938	94.6578	58.5938	94.8179	58.5938	94.7825	58.5938	94.9878	58.5938	94.937	58.5938	95.1849	58.5938	95.1206	58.5938	95.4033	58.5938	95.3291	58.5938	95.6332	58.5938	95.5543	58.5938	95.862	58.5938	95.7844	58.5938	96.0752	58.5938	96.0048	58.5938	96.2579	58.5938	96.2001	58.5938	96.3964	58.5938	96.3554	58.5938	96.4797	58.5938	96.4584	58.5938	96.501
60.0586	94.8376	60.0586	94.8392	60.0586	94.8455	60.0586	94.8515	60.0586	94.863	60.0586	94.8763	60.0586	94.8911	60.0586	94.9164	60.0586	94.9317	60.0586	94.975	60.0586	94.9876	60.0586	95.0557	60.0586	95.062	60.0586	95.1615	60.0586	95.1586	60.0586	95.2946	60.0586	95.2801	60.0586	95.4551	60.0586	95.4281	60.0586	95.6408	60.0586	95.6019	60.0586	95.8461	60.0586	95.7975	60.0586	96.0624	60.0586	96.0076	60.0586	96.2778	60.0586	96.2216	60.0586	96.4791	60.0586	96.4263	60.0586	96.652	60.0586	96.6075	60.0586	96.7836	60.0586	96.7514	60.0586	96.8633	60.0586	96.8465	60.0586	96.8849
62.9883	95.7754	62.9883	95.7783	62.9883	95.7842	62.9883	95.7934	62.9883	95.8047	62.9883	95.8222	62.9883	95.8372	62.9883	95.8662	62.9883	95.883	62.9883	95.9274	62.9883	95.9436	62.9883	96.0079	62.9883	96.0208	62.9883	96.1095	62.9883	96.1167	62.9883	96.2334	62.9883	96.2327	62.9883	96.3792	62.9883	96.3695	62.9883	96.5449	62.9883	96.5261	62.9883	96.7261	62.9883	96.6992	62.9883	96.9156	62.9883	96.8829	62.9883	97.1039	62.9883	97.0686	62.9883	97.2799	62.9883	97.2455	62.9883	97.4315	62.9883	97.4017	62.9883	97.5474	62.9883	97.5255	62.9883	97.6184	62.9883	97.6068	62.9883	97.6387
64.4531	96.2051	64.4531	96.2088	64.4531	96.214	64.4531	96.2255	64.4531	96.2352	64.4531	96.2561	64.4531	96.2692	64.4531	96.3018	64.4531	96.3167	64.4531	96.364	64.4531	96.3787	64.4531	96.4442	64.4531	96.4565	64.4531	96.5437	64.4531	96.5514	64.4531	96.6631	64.4531	96.6644	64.4531	96.8019	64.4531	96.7956	64.4531	96.9582	64.4531	96.9439	64.4531	97.1279	64.4531	97.1063	64.4531	97.3046	64.4531	97.2775	64.4531	97.4798	64.4531	97.4499	64.4531	97.6434	64.4531	97.6138	64.4531	97.7843	64.4531	97.7584	64.4531	97.8921	64.4531	97.8729	64.4531	97.9583	64.4531	97.9481	64.4531	97.9774
67.3828	96.9935	67.3828	96.9981	67.3828	97.0028	67.3828	97.0169	67.3828	97.026	67.3828	97.0501	67.3828	97.0629	67.3828	97.0981	67.3828	97.1136	67.3828	97.1613	67.3828	97.1783	67.3828	97.2401	67.3828	97.2572	67.3828	97.3347	67.3828	97.3503	67.3828	97.4449	67.3828	97.4575	67.3828	97.57	67.3828	97.5784	67.3828	97.708	67.3828	97.7114	67.3828	97.8557	67.3828	97.8539	67.3828	98.0081	67.3828	98.0017	67.3828	98.1586	67.3828	98.1487	67.3828	98.2989	67.3828	98.2873	67.3828	98.42	67.3828	98.4088	67.3828	98.5132	67.3828	98.5044	67.3828	98.5713	67.3828	98.5664	67.3828	98.5894
68.8477	97.3655	68.8477	97.3697	68.8477	97.3758	68.8477	97.3885	68.8477	97.4004	68.8477	97.4218	68.8477	97.4393	68.8477	97.4696	68.8477	97.4921	68.8477	97.532	68.8477	97.5586	68.8477	97.6087	68.8477	97.6385	68.8477	97.6998	68.8477	97.7314	68.8477	97.8048	68.8477	97.8366	68.8477	97.9228	68.8477	97.9534	68.8477	98.052	68.8477	98.0799	68.8477	98.1897	68.8477	98.2138	68.8477	98.3316	68.8477	98.351	68.8477	98.4716	68.8477	98.4863	68.8477	98.6026	68.8477	98.6128	68.8477	98.7163	68.8477	98.7227	68.8477	98.8047	68.8477	98.8083	68.8477	98.8611	68.8477	98.8626	68.8477	98.8808
