"SPL Vertical"																																																																							
"On-Axis"		"10°"		"-10°"		"20°"		"-20°"		"30°"		"-30°"		"40°"		"-40°"		"50°"		"-50°"		"60°"		"-60°"		"70°"		"-70°"		"80°"		"-80°"		"90°"		"-90°"		"100°"		"-100°"		"110°"		"-110°"		"120°"		"-120°"		"130°"		"-130°"		"140°"		"-140°"		"150°"		"-150°"		"160°"		"-160°"		"170°"		"-170°"		"180°"	
"Frequency [Hz]"	"Sound Pessure Level [dB]  / [2.83V 1m] "	"Frequency [Hz]"	"Sound Pessure Level [dB]  / [2.83V 1m] "	"Frequency [Hz]"	"Sound Pessure Level [dB]  / [2.83V 1m] "	"Frequency [Hz]"	"Sound Pessure Level [dB]  / [2.83V 1m] "	"Frequency [Hz]"	"Sound Pessure Level [dB]  / [2.83V 1m] "	"Frequency [Hz]"	"Sound Pessure Level [dB]  / [2.83V 1m] "	"Frequency [Hz]"	"Sound Pessure Level [dB]  / [2.83V 1m] "	"Frequency [Hz]"	"Sound Pessure Level [dB]  / [2.83V 1m] "	"Frequency [Hz]"	"Sound Pessure Level [dB]  / [2.83V 1m] "	"Frequency [Hz]"	"Sound Pessure Level [dB]  / [2.83V 1m] "	"Frequency [Hz]"	"Sound Pessure Level [dB]  / [2.83V 1m] "	"Frequency [Hz]"	"Sound Pessure Level [dB]  / [2.83V 1m] "	"Frequency [Hz]"	"Sound Pessure Level [dB]  / [2.83V 1m] "	"Frequency [Hz]"	"Sound Pessure Level [dB]  / [2.83V 1m] "	"Frequency [Hz]"	"Sound Pessure Level [dB]  / [2.83V 1m] "	"Frequency [Hz]"	"Sound Pessure Level [dB]  / [2.83V 1m] "	"Frequency [Hz]"	"Sound Pessure Level [dB]  / [2.83V 1m] "	"Frequency [Hz]"	"Sound Pessure Level [dB]  / [2.83V 1m] "	"Frequency [Hz]"	"Sound Pessure Level [dB]  / [2.83V 1m] "	"Frequency [Hz]"	"Sound Pessure Level [dB]  / [2.83V 1m] "	"Frequency [Hz]"	"Sound Pessure Level [dB]  / [2.83V 1m] "	"Frequency [Hz]"	"Sound Pessure Level [dB]  / [2.83V 1m] "	"Frequency [Hz]"	"Sound Pessure Level [dB]  / [2.83V 1m] "	"Frequency [Hz]"	"Sound Pessure Level [dB]  / [2.83V 1m] "	"Frequency [Hz]"	"Sound Pessure Level [dB]  / [2.83V 1m] "	"Frequency [Hz]"	"Sound Pessure Level [dB]  / [2.83V 1m] "	"Frequency [Hz]"	"Sound Pessure Level [dB]  / [2.83V 1m] "	"Frequency [Hz]"	"Sound Pessure Level [dB]  / [2.83V 1m] "	"Frequency [Hz]"	"Sound Pessure Level [dB]  / [2.83V 1m] "	"Frequency [Hz]"	"Sound Pessure Level [dB]  / [2.83V 1m] "	"Frequency [Hz]"	"Sound Pessure Level [dB]  / [2.83V 1m] "	"Frequency [Hz]"	"Sound Pessure Level [dB]  / [2.83V 1m] "	"Frequency [Hz]"	"Sound Pessure Level [dB]  / [2.83V 1m] "	"Frequency [Hz]"	"Sound Pessure Level [dB]  / [2.83V 1m] "	"Frequency [Hz]"	"Sound Pessure Level [dB]  / [2.83V 1m] "	"Frequency [Hz]"	"Sound Pessure Level [dB]  / [2.83V 1m] "
20.5078	63.0788	20.5078	62.4721	20.5078	63.575	20.5078	61.7802	20.5078	63.9474	20.5078	61.054	20.5078	64.1877	20.5078	60.3875	20.5078	64.2888	20.5078	59.9273	20.5078	64.2444	20.5078	59.8362	20.5078	64.0491	20.5078	60.1967	20.5078	63.7032	20.5078	60.9417	20.5078	63.2204	20.5078	61.9067	20.5078	62.645	20.5078	62.9316	20.5078	62.0765	20.5078	63.9062	20.5078	61.6878	20.5078	64.7656	20.5078	61.6779	20.5078	65.4725	20.5078	62.1334	20.5078	66.0032	20.5078	62.9409	20.5078	66.3403	20.5078	63.8848	20.5078	66.4698	20.5078	64.7825	20.5078	66.3803	20.5078	65.5263	20.5078	66.0652
21.9727	62.7162	21.9727	61.8877	21.9727	63.3624	21.9727	60.9217	21.9727	63.8108	21.9727	59.9388	21.9727	64.0532	21.9727	59.2026	21.9727	64.0797	21.9727	59.09	21.9727	63.8761	21.9727	59.7913	21.9727	63.4239	21.9727	61.0819	21.9727	62.7075	21.9727	62.5884	21.9727	61.7383	21.9727	64.0646	21.9727	60.6307	21.9727	65.4013	21.9727	59.7638	21.9727	66.5594	21.9727	59.8014	21.9727	67.5262	21.9727	60.9914	21.9727	68.2958	21.9727	62.7686	21.9727	68.8621	21.9727	64.5499	21.9727	69.2163	21.9727	66.0875	21.9727	69.3466	21.9727	67.3187	21.9727	69.239	21.9727	68.2432	21.9727	68.8771
23.4375	63.4822	23.4375	62.8365	23.4375	64.0406	23.4375	62.2257	23.4375	64.4504	23.4375	61.8543	23.4375	64.6816	23.4375	61.9557	23.4375	64.7186	23.4375	62.6273	23.4375	64.5536	23.4375	63.7376	23.4375	64.1912	23.4375	65.0538	23.4375	63.6667	23.4375	66.3919	23.4375	63.0886	23.4375	67.6493	23.4375	62.6975	23.4375	68.7787	23.4375	62.8386	23.4375	69.7591	23.4375	63.695	23.4375	70.5805	23.4375	65.0699	23.4375	71.2356	23.4375	66.6099	23.4375	71.7168	23.4375	68.069	23.4375	72.0147	23.4375	69.3333	23.4375	72.1188	23.4375	70.3629	23.4375	72.0171	23.4375	71.1496	23.4375	71.6979
24.9023	66.2922	24.9023	65.6583	24.9023	66.801	24.9023	64.964	24.9023	67.1531	24.9023	64.3353	24.9023	67.3316	24.9023	63.9737	24.9023	67.3246	24.9023	64.0905	24.9023	67.1228	24.9023	64.7514	24.9023	66.7225	24.9023	65.8138	24.9023	66.1389	24.9023	67.056	24.9023	65.4383	24.9023	68.3074	24.9023	64.7985	24.9023	69.4718	24.9023	64.549	24.9023	70.5024	24.9023	65.0065	24.9023	71.3765	24.9023	66.1346	24.9023	72.0812	24.9023	67.5823	24.9023	72.6063	24.9023	69.028	24.9023	72.9412	24.9023	70.3043	24.9023	73.0745	24.9023	71.3475	24.9023	72.9938	24.9023	72.1408	24.9023	72.6865
26.3672	67.4941	26.3672	66.9869	26.3672	67.9332	26.3672	66.5066	26.3672	68.251	26.3672	66.1999	26.3672	68.4181	26.3672	66.2348	26.3672	68.4189	26.3672	66.7085	26.3672	68.2473	26.3672	67.5717	26.3672	67.9117	26.3672	68.671	26.3672	67.4522	26.3672	69.8497	26.3672	66.9729	26.3672	70.9993	26.3672	66.6789	26.3672	72.058	26.3672	66.8388	26.3672	72.993	26.3672	67.5913	26.3672	73.786	26.3672	68.7964	26.3672	74.4246	26.3672	70.1761	26.3672	74.8979	26.3672	71.5122	26.3672	75.1952	26.3672	72.6885	26.3672	75.305	26.3672	73.6561	26.3672	75.216	26.3672	74.3992	26.3672	74.9172
27.832	69.1159	27.832	68.6189	27.832	69.5429	27.832	68.1408	27.832	69.85	27.832	67.8201	27.832	70.0102	27.832	67.8206	27.832	70.0092	27.832	68.247	27.832	69.8428	27.832	69.066	27.832	69.5218	27.832	70.1345	27.832	69.0884	27.832	71.2966	27.832	68.6467	27.832	72.4398	27.832	68.3918	27.832	73.4983	27.832	68.5693	27.832	74.4365	27.832	69.3018	27.832	75.2345	27.832	70.4609	27.832	75.8789	27.832	71.7915	27.832	76.3586	27.832	73.087	27.832	76.6627	27.832	74.233	27.832	76.78	27.832	75.1784	27.832	76.6994	27.832	75.9051	27.832	76.4105
29.2969	71.1513	29.2969	70.7303	29.2969	71.5224	29.2969	70.3386	29.2969	71.7955	29.2969	70.0903	29.2969	71.9432	29.2969	70.1125	29.2969	71.9508	29.2969	70.4865	29.2969	71.8152	29.2969	71.1945	29.2969	71.5484	29.2969	72.1328	29.2969	71.1911	29.2969	73.176	29.2969	70.8347	29.2969	74.2232	29.2969	70.639	29.2969	75.2085	29.2969	70.7984	29.2969	76.0924	29.2969	71.4202	29.2969	76.8505	29.2969	72.4252	29.2969	77.4661	29.2969	73.615	29.2969	77.9257	29.2969	74.8052	29.2969	78.2169	29.2969	75.8795	29.2969	78.3276	29.2969	76.7784	29.2969	78.2469	29.2969	77.4763	29.2969	77.9654
30.7617	72.5066	30.7617	72.1193	30.7617	72.8522	30.7617	71.7692	30.7617	73.107	30.7617	71.5663	30.7617	73.2425	30.7617	71.6285	30.7617	73.2441	30.7617	72.0263	30.7617	73.1094	30.7617	72.738	30.7617	72.8528	30.7617	73.6651	30.7617	72.5189	30.7617	74.69	30.7617	72.2029	30.7617	75.7179	30.7617	72.0637	30.7617	76.6856	30.7617	72.2821	30.7617	77.5547	30.7617	72.9436	30.7617	78.301	30.7617	73.9591	30.7617	78.9076	30.7617	75.1381	30.7617	79.361	30.7617	76.3087	30.7617	79.6488	30.7617	77.3625	30.7617	79.7592	30.7617	78.2436	30.7617	79.6815	30.7617	78.9275	30.7617	79.4063
32.2266	74.5198	32.2266	74.1832	32.2266	74.8263	32.2266	73.8847	32.2266	75.058	32.2266	73.7156	32.2266	75.1883	32.2266	73.7711	32.2266	75.2037	32.2266	74.1111	32.2266	75.1025	32.2266	74.7262	32.2266	74.8991	32.2266	75.544	32.2266	74.6337	32.2266	76.4678	32.2266	74.3861	32.2266	77.4121	32.2266	74.2823	32.2266	78.3148	32.2266	74.4645	32.2266	79.1345	32.2266	75.0111	32.2266	79.844	32.2266	75.873	32.2266	80.4236	32.2266	76.9081	32.2266	80.8576	32.2266	77.9673	32.2266	81.1324	32.2266	78.9435	32.2266	81.2358	32.2266	79.774	32.2266	81.1573	32.2266	80.427	32.2266	80.889
33.6914	76.4144	33.6914	76.1576	33.6914	76.6569	33.6914	75.944	33.6914	76.8447	33.6914	75.8452	33.6914	76.9527	33.6914	75.9321	33.6914	76.9683	33.6914	76.2488	33.6914	76.8912	33.6914	76.7909	33.6914	76.7371	33.6914	77.5083	33.6914	76.545	33.6914	78.328	33.6914	76.3855	33.6914	79.1795	33.6914	76.3611	33.6914	80.0063	33.6914	76.5787	33.6914	80.7673	33.6914	77.0935	33.6914	81.4333	33.6914	77.8679	33.6914	81.9822	33.6914	78.7935	33.6914	82.3964	33.6914	79.7493	33.6914	82.6612	33.6914	80.6408	33.6914	82.7637	33.6914	81.4069	33.6914	82.6937	33.6914	82.0136	33.6914	82.4443
35.1563	77.9782	35.1563	77.7496	35.1563	78.1986	35.1563	77.5649	35.1563	78.3736	35.1563	77.4873	35.1563	78.4795	35.1563	77.578	35.1563	78.5049	35.1563	77.8755	35.1563	78.4502	35.1563	78.3775	35.1563	78.3309	35.1563	79.0425	35.1563	78.1835	35.1563	79.8074	35.1563	78.0709	35.1563	80.6085	35.1563	78.0804	35.1563	81.3922	35.1563	78.3006	35.1563	82.1184	35.1563	78.7776	35.1563	82.7573	35.1563	79.4836	35.1563	83.2861	35.1563	80.3302	35.1563	83.6868	35.1563	81.2126	35.1563	83.9442	35.1563	82.0435	35.1563	84.0456	35.1563	82.7636	35.1563	83.9814	35.1563	83.3371	35.1563	83.7454
36.6211	79.6798	36.6211	79.4622	36.6211	79.8888	36.6211	79.2808	36.6211	80.0562	36.6211	79.1904	36.6211	80.1611	36.6211	79.2451	36.6211	80.1926	36.6211	79.4823	36.6211	80.1505	36.6211	79.907	36.6211	80.0476	36.6211	80.4894	36.6211	79.914	36.6211	81.1771	36.6211	79.8017	36.6211	81.9118	36.6211	79.7839	36.6211	82.6418	36.6211	79.9391	36.6211	83.3256	36.6211	80.3177	36.6211	83.9315	36.6211	80.9111	36.6211	84.4351	36.6211	81.6535	36.6211	84.8168	36.6211	82.4531	36.6211	85.0605	36.6211	83.2249	36.6211	85.1533	36.6211	83.9062	36.6211	85.0858	36.6211	84.4565	36.6211	84.8531
38.0859	81.0388	38.0859	80.8566	38.0859	81.2185	38.0859	80.7126	38.0859	81.3655	38.0859	80.6542	38.0859	81.4596	38.0859	80.7274	38.0859	81.4906	38.0859	80.963	38.0859	81.4586	38.0859	81.365	38.0859	81.3762	38.0859	81.909	38.0859	81.2718	38.0859	82.5505	38.0859	81.1931	38.0859	83.2386	38.0859	81.2051	38.0859	83.9263	38.0859	81.3749	38.0859	84.5744	38.0859	81.7446	38.0859	85.1518	38.0859	82.3065	38.0859	85.6337	38.0859	83.0036	38.0859	86.0001	38.0859	83.7555	38.0859	86.2346	38.0859	84.4846	38.0859	86.3243	38.0859	85.1317	38.0859	86.2597	38.0859	85.6567	38.0859	86.0364
39.5508	82.5287	39.5508	82.3889	39.5508	82.675	39.5508	82.2897	39.5508	82.8011	39.5508	82.2696	39.5508	82.8892	39.5508	82.3643	39.5508	82.9301	39.5508	82.5972	39.5508	82.924	39.5508	82.9711	39.5508	82.8823	39.5508	83.4668	39.5508	82.8295	39.5508	84.0493	39.5508	82.8048	39.5508	84.6766	39.5508	82.8596	39.5508	85.3079	39.5508	83.045	39.5508	85.9074	39.5508	83.3932	39.5508	86.4453	39.5508	83.8998	39.5508	86.8971	39.5508	84.5223	39.5508	87.2425	39.5508	85.1967	39.5508	87.4649	39.5508	85.857	39.5508	87.5511	39.5508	86.4488	39.5508	87.4923	39.5508	86.933	39.5508	87.2851
41.0156	84.0253	41.0156	83.8882	41.0156	84.1658	41.0156	83.7841	41.0156	84.2864	41.0156	83.7466	41.0156	84.3715	41.0156	83.808	41.0156	84.4125	41.0156	83.9913	41.0156	84.4095	41.0156	84.3032	41.0156	84.3718	41.0156	84.7315	41.0156	84.3204	41.0156	85.248	41.0156	84.2892	41.0156	85.8159	41.0156	84.3224	41.0156	86.397	41.0156	84.4664	41.0156	86.9561	41.0156	84.7534	41.0156	87.4628	41.0156	85.1859	41.0156	87.8918	41.0156	85.7321	41.0156	88.2217	41.0156	86.3372	41.0156	88.4353	41.0156	86.9402	41.0156	88.5195	41.0156	87.4879	41.0156	88.4656	41.0156	87.9402	41.0156	88.2709
42.4805	85.3845	42.4805	85.2608	42.4805	85.5115	42.4805	85.1662	42.4805	85.6215	42.4805	85.1294	42.4805	85.7004	42.4805	85.1786	42.4805	85.7408	42.4805	85.3347	42.4805	85.7421	42.4805	85.6056	42.4805	85.7127	42.4805	85.9834	42.4805	85.6704	42.4805	86.446	42.4805	85.6446	42.4805	86.962	42.4805	85.6735	42.4805	87.4968	42.4805	85.7978	42.4805	88.0171	42.4805	86.0475	42.4805	88.4929	42.4805	86.4283	42.4805	88.8985	42.4805	86.9164	42.4805	89.2123	42.4805	87.465	42.4805	89.4164	42.4805	88.0193	42.4805	89.4976	42.4805	88.5282	42.4805	89.4473	42.4805	88.952	42.4805	89.2636
43.9453	86.3334	43.9453	86.2249	43.9453	86.4476	43.9453	86.1458	43.9453	86.5489	43.9453	86.1224	43.9453	86.624	43.9453	86.1799	43.9453	86.666	43.9453	86.3368	43.9453	86.6749	43.9453	86.6003	43.9453	86.6587	43.9453	86.9634	43.9453	86.6343	43.9453	87.406	43.9453	86.6285	43.9453	87.8996	43.9453	86.6761	43.9453	88.4122	43.9453	86.8125	43.9453	88.9123	43.9453	87.0635	43.9453	89.3711	43.9453	87.4333	43.9453	89.7635	43.9453	87.9001	43.9453	90.0683	43.9453	88.4218	43.9453	90.2679	43.9453	88.9481	43.9453	90.3491	43.9453	89.4316	43.9453	90.3039	43.9453	89.8345	43.9453	90.1304
45.4102	87.5091	45.4102	87.4121	45.4102	87.613	45.4102	87.3424	45.4102	87.7073	45.4102	87.3224	45.4102	87.7805	45.4102	87.3739	45.4102	87.8265	45.4102	87.5133	45.4102	87.8451	45.4102	87.7474	45.4102	87.843	45.4102	88.0718	45.4102	87.835	45.4102	88.4704	45.4102	87.8436	45.4102	88.919	45.4102	87.8975	45.4102	89.3892	45.4102	88.0266	45.4102	89.852	45.4102	88.2528	45.4102	90.28	45.4102	88.581	45.4102	90.6486	45.4102	88.9949	45.4102	90.9367	45.4102	89.46	45.4102	91.127	45.4102	89.9331	45.4102	91.2066	45.4102	90.3713	45.4102	91.1678	45.4102	90.7388	45.4102	91.0096
46.875	88.5622	46.875	88.4783	46.875	88.6548	46.875	88.4211	46.875	88.7416	46.875	88.41	46.875	88.8122	46.875	88.4635	46.875	88.8607	46.875	88.5956	46.875	88.8869	46.875	88.8127	46.875	88.8964	46.875	89.1112	46.875	88.9018	46.875	89.4777	46.875	88.9224	46.875	89.8916	46.875	88.9827	46.875	90.3274	46.875	89.1081	46.875	90.7586	46.875	89.3179	46.875	91.1593	46.875	89.6173	46.875	91.506	46.875	89.9935	46.875	91.7779	46.875	90.4178	46.875	91.9581	46.875	90.8518	46.875	92.034	46.875	91.2565	46.875	91.9984	46.875	91.5979	46.875	91.8506
48.3398	89.4504	48.3398	89.3706	48.3398	89.5389	48.3398	89.3158	48.3398	89.6229	48.3398	89.3039	48.3398	89.6927	48.3398	89.3519	48.3398	89.7432	48.3398	89.473	48.3398	89.774	48.3398	89.6737	48.3398	89.7903	48.3398	89.9515	48.3398	89.8033	48.3398	90.2952	48.3398	89.8304	48.3398	90.6857	48.3398	89.8935	48.3398	91.0998	48.3398	90.0152	48.3398	91.5119	48.3398	90.213	48.3398	91.8971	48.3398	90.4922	48.3398	92.2321	48.3398	90.8422	48.3398	92.4965	48.3398	91.2375	48.3398	92.6733	48.3398	91.6434	48.3398	92.75	48.3398	92.0233	48.3398	92.7197	48.3398	92.3445	48.3398	92.5821
51.2695	91.1091	51.2695	91.051	51.2695	91.1796	51.2695	91.0179	51.2695	91.2522	51.2695	91.0231	51.2695	91.3189	51.2695	91.079	51.2695	91.3753	51.2695	91.195	51.2695	91.4207	51.2695	91.3757	51.2695	91.4586	51.2695	91.6195	51.2695	91.497	51.2695	91.9178	51.2695	91.5484	51.2695	92.2564	51.2695	91.6284	51.2695	92.6166	51.2695	91.7531	51.2695	92.9775	51.2695	91.9351	51.2695	93.3176	51.2695	92.1787	51.2695	93.6159	51.2695	92.4766	51.2695	93.8536	51.2695	92.8105	51.2695	94.015	51.2695	93.1535	51.2695	94.0883	51.2695	93.4759	51.2695	94.0671	51.2695	93.7495	51.2695	93.9517
52.7344	91.8759	52.7344	91.826	52.7344	91.9385	52.7344	91.7997	52.7344	92.0047	52.7344	91.8085	52.7344	92.0675	52.7344	91.8629	52.7344	92.123	52.7344	91.9714	52.7344	92.1704	52.7344	92.1382	52.7344	92.2127	52.7344	92.3622	52.7344	92.2566	52.7344	92.6364	52.7344	92.3129	52.7344	92.9486	52.7344	92.3948	52.7344	93.2824	52.7344	92.5162	52.7344	93.6186	52.7344	92.6879	52.7344	93.9371	52.7344	92.9139	52.7344	94.2182	52.7344	93.1885	52.7344	94.4436	52.7344	93.4955	52.7344	94.5979	52.7344	93.8112	52.7344	94.6697	52.7344	94.1085	52.7344	94.6529	52.7344	94.3611	52.7344	94.5475
54.1992	92.5507	54.1992	92.5069	54.1992	92.6078	54.1992	92.4861	54.1992	92.6702	54.1992	92.4979	54.1992	92.7317	54.1992	92.5518	54.1992	92.7887	54.1992	92.6549	54.1992	92.8402	54.1992	92.8109	54.1992	92.8885	54.1992	93.0191	54.1992	92.9393	54.1992	93.2734	54.1992	93.0014	54.1992	93.5633	54.1992	93.0861	54.1992	93.8741	54.1992	93.205	54.1992	94.1882	54.1992	93.3675	54.1992	94.4872	54.1992	93.5773	54.1992	94.7522	54.1992	93.8296	54.1992	94.9659	54.1992	94.1108	54.1992	95.1134	54.1992	94.4001	54.1992	95.1838	54.1992	94.6728	54.1992	95.1711	54.1992	94.9048	54.1992	95.0757
55.6641	93.1604	55.6641	93.1223	55.6641	93.2122	55.6641	93.1064	55.6641	93.2707	55.6641	93.1213	55.6641	93.3304	55.6641	93.1751	55.6641	93.3878	55.6641	93.2743	55.6641	93.4423	55.6641	93.4223	55.6641	93.4956	55.6641	93.6183	55.6641	93.5525	55.6641	93.8574	55.6641	93.6207	55.6641	94.13	55.6641	93.7096	55.6641	94.4228	55.6641	93.8293	55.6641	94.7198	55.6641	93.9876	55.6641	95.0036	55.6641	94.1875	55.6641	95.2563	55.6641	94.4248	55.6641	95.4615	55.6641	94.6873	55.6641	95.6046	55.6641	94.9563	55.6641	95.6751	55.6641	95.2093	55.6641	95.6671	55.6641	95.4239	55.6641	95.5811
58.5938	94.3495	58.5938	94.3207	58.5938	94.3928	58.5938	94.3126	58.5938	94.4453	58.5938	94.3312	58.5938	94.5027	58.5938	94.3826	58.5938	94.5624	58.5938	94.4711	58.5938	94.6232	58.5938	94.5995	58.5938	94.6859	58.5938	94.7673	58.5938	94.7533	58.5938	94.9709	58.5938	94.8303	58.5938	95.2034	58.5938	94.9229	58.5938	95.4544	58.5938	95.0379	58.5938	95.7111	58.5938	95.1806	58.5938	95.9585	58.5938	95.3531	58.5938	96.1815	58.5938	95.5525	58.5938	96.3652	58.5938	95.7701	58.5938	96.4963	58.5938	95.9916	58.5938	96.5653	58.5938	96.1992	58.5938	96.5667	58.5938	96.3745	58.5938	96.501
60.0586	94.8376	60.0586	94.8123	60.0586	94.8775	60.0586	94.807	60.0586	94.9274	60.0586	94.8271	60.0586	94.9837	60.0586	94.8775	60.0586	95.0436	60.0586	94.9621	60.0586	95.1061	60.0586	95.0832	60.0586	95.1716	60.0586	95.2406	60.0586	95.2421	60.0586	95.4312	60.0586	95.3216	60.0586	95.6487	60.0586	95.4151	60.0586	95.8839	60.0586	95.5279	60.0586	96.1251	60.0586	95.6646	60.0586	96.3585	60.0586	95.827	60.0586	96.5698	60.0586	96.0126	60.0586	96.7447	60.0586	96.2138	60.0586	96.8708	60.0586	96.4178	60.0586	96.9387	60.0586	96.6088	60.0586	96.9433	60.0586	96.7696	60.0586	96.8849
62.9883	95.7754	62.9883	95.7587	62.9883	95.8075	62.9883	95.761	62.9883	95.8517	62.9883	95.7859	62.9883	95.9053	62.9883	95.8368	62.9883	95.9662	62.9883	95.9163	62.9883	96.033	62.9883	96.0259	62.9883	96.1056	62.9883	96.1653	62.9883	96.1846	62.9883	96.3321	62.9883	96.2719	62.9883	96.5216	62.9883	96.3702	62.9883	96.7264	62.9883	96.4823	62.9883	96.9372	62.9883	96.6109	62.9883	97.1425	62.9883	96.7568	62.9883	97.33	62.9883	96.9178	62.9883	97.4873	62.9883	97.0883	62.9883	97.6033	62.9883	97.2586	62.9883	97.6695	62.9883	97.4161	62.9883	97.6813	62.9883	97.5471	62.9883	97.6387
64.4531	96.2051	64.4531	96.1921	64.4531	96.2338	64.4531	96.1976	64.4531	96.2754	64.4531	96.2245	64.4531	96.3277	64.4531	96.2754	64.4531	96.3888	64.4531	96.3524	64.4531	96.4573	64.4531	96.4564	64.4531	96.5325	64.4531	96.5872	64.4531	96.6147	64.4531	96.7428	64.4531	96.7048	64.4531	96.9189	64.4531	96.8044	64.4531	97.1092	64.4531	96.9155	64.4531	97.3053	64.4531	97.0398	64.4531	97.497	64.4531	97.1777	64.4531	97.6728	64.4531	97.3272	64.4531	97.8214	64.4531	97.4835	64.4531	97.9323	64.4531	97.6381	64.4531	97.9975	64.4531	97.78	64.4531	98.0125	64.4531	97.897	64.4531	97.9774
67.3828	96.9935	67.3828	96.9869	67.3828	97.0162	67.3828	96.9978	67.3828	97.0532	67.3828	97.0278	67.3828	97.1031	67.3828	97.0782	67.3828	97.1643	67.3828	97.1499	67.3828	97.2353	67.3828	97.2433	67.3828	97.3149	67.3828	97.358	67.3828	97.4021	67.3828	97.4923	67.3828	97.4963	67.3828	97.6433	67.3828	97.5975	67.3828	97.806	67.3828	97.7058	67.3828	97.9742	67.3828	97.8215	67.3828	98.1395	67.3828	97.9442	67.3828	98.2929	67.3828	98.0723	67.3828	98.4245	67.3828	98.2021	67.3828	98.5255	67.3828	98.3274	67.3828	98.5888	67.3828	98.44	67.3828	98.6101	67.3828	98.5304	67.3828	98.5894
68.8477	97.3655	68.8477	97.3608	68.8477	97.3862	68.8477	97.3732	68.8477	97.4218	68.8477	97.4035	68.8477	97.471	68.8477	97.4525	68.8477	97.5324	68.8477	97.5208	68.8477	97.6046	68.8477	97.6086	68.8477	97.686	68.8477	97.7153	68.8477	97.7753	68.8477	97.8397	68.8477	97.8712	68.8477	97.979	68.8477	97.9729	68.8477	98.1295	68.8477	98.0799	68.8477	98.2853	68.8477	98.1917	68.8477	98.4393	68.8477	98.3076	68.8477	98.5832	68.8477	98.426	68.8477	98.7081	68.8477	98.5437	68.8477	98.8055	68.8477	98.6556	68.8477	98.8689	68.8477	98.7545	68.8477	98.8941	68.8477	98.8322	68.8477	98.8808
