"SPL Vertical"																																																																							
"On-Axis"		"10°"		"-10°"		"20°"		"-20°"		"30°"		"-30°"		"40°"		"-40°"		"50°"		"-50°"		"60°"		"-60°"		"70°"		"-70°"		"80°"		"-80°"		"90°"		"-90°"		"100°"		"-100°"		"110°"		"-110°"		"120°"		"-120°"		"130°"		"-130°"		"140°"		"-140°"		"150°"		"-150°"		"160°"		"-160°"		"170°"		"-170°"		"180°"	
"Frequency [Hz]"	"Sound Pessure Level [dB]  / [2.83V 1m] "	"Frequency [Hz]"	"Sound Pessure Level [dB]  / [2.83V 1m] "	"Frequency [Hz]"	"Sound Pessure Level [dB]  / [2.83V 1m] "	"Frequency [Hz]"	"Sound Pessure Level [dB]  / [2.83V 1m] "	"Frequency [Hz]"	"Sound Pessure Level [dB]  / [2.83V 1m] "	"Frequency [Hz]"	"Sound Pessure Level [dB]  / [2.83V 1m] "	"Frequency [Hz]"	"Sound Pessure Level [dB]  / [2.83V 1m] "	"Frequency [Hz]"	"Sound Pessure Level [dB]  / [2.83V 1m] "	"Frequency [Hz]"	"Sound Pessure Level [dB]  / [2.83V 1m] "	"Frequency [Hz]"	"Sound Pessure Level [dB]  / [2.83V 1m] "	"Frequency [Hz]"	"Sound Pessure Level [dB]  / [2.83V 1m] "	"Frequency [Hz]"	"Sound Pessure Level [dB]  / [2.83V 1m] "	"Frequency [Hz]"	"Sound Pessure Level [dB]  / [2.83V 1m] "	"Frequency [Hz]"	"Sound Pessure Level [dB]  / [2.83V 1m] "	"Frequency [Hz]"	"Sound Pessure Level [dB]  / [2.83V 1m] "	"Frequency [Hz]"	"Sound Pessure Level [dB]  / [2.83V 1m] "	"Frequency [Hz]"	"Sound Pessure Level [dB]  / [2.83V 1m] "	"Frequency [Hz]"	"Sound Pessure Level [dB]  / [2.83V 1m] "	"Frequency [Hz]"	"Sound Pessure Level [dB]  / [2.83V 1m] "	"Frequency [Hz]"	"Sound Pessure Level [dB]  / [2.83V 1m] "	"Frequency [Hz]"	"Sound Pessure Level [dB]  / [2.83V 1m] "	"Frequency [Hz]"	"Sound Pessure Level [dB]  / [2.83V 1m] "	"Frequency [Hz]"	"Sound Pessure Level [dB]  / [2.83V 1m] "	"Frequency [Hz]"	"Sound Pessure Level [dB]  / [2.83V 1m] "	"Frequency [Hz]"	"Sound Pessure Level [dB]  / [2.83V 1m] "	"Frequency [Hz]"	"Sound Pessure Level [dB]  / [2.83V 1m] "	"Frequency [Hz]"	"Sound Pessure Level [dB]  / [2.83V 1m] "	"Frequency [Hz]"	"Sound Pessure Level [dB]  / [2.83V 1m] "	"Frequency [Hz]"	"Sound Pessure Level [dB]  / [2.83V 1m] "	"Frequency [Hz]"	"Sound Pessure Level [dB]  / [2.83V 1m] "	"Frequency [Hz]"	"Sound Pessure Level [dB]  / [2.83V 1m] "	"Frequency [Hz]"	"Sound Pessure Level [dB]  / [2.83V 1m] "	"Frequency [Hz]"	"Sound Pessure Level [dB]  / [2.83V 1m] "	"Frequency [Hz]"	"Sound Pessure Level [dB]  / [2.83V 1m] "	"Frequency [Hz]"	"Sound Pessure Level [dB]  / [2.83V 1m] "	"Frequency [Hz]"	"Sound Pessure Level [dB]  / [2.83V 1m] "
20.5078	52.4943	20.5078	52.73	20.5078	52.2605	20.5078	52.9584	20.5078	52.0387	20.5078	53.1713	20.5078	51.839	20.5078	53.3628	20.5078	51.6697	20.5078	53.5285	20.5078	51.537	20.5078	53.6655	20.5078	51.4446	20.5078	53.7724	20.5078	51.3944	20.5078	53.8488	20.5078	51.3877	20.5078	53.895	20.5078	51.4253	20.5078	53.9118	20.5078	51.5076	20.5078	53.9003	20.5078	51.6337	20.5078	53.8619	20.5078	51.7995	20.5078	53.7973	20.5078	51.9977	20.5078	53.7077	20.5078	52.2181	20.5078	53.5934	20.5078	52.4494	20.5078	53.4548	20.5078	52.6803	20.5078	53.2924	20.5078	52.9019	20.5078	53.1074
21.9727	54.8956	21.9727	55.0859	21.9727	54.7045	21.9727	55.2666	21.9727	54.5219	21.9727	55.4301	21.9727	54.3562	21.9727	55.5704	21.9727	54.2143	21.9727	55.683	21.9727	54.1001	21.9727	55.7652	21.9727	54.0152	21.9727	55.8155	21.9727	53.9584	21.9727	55.8337	21.9727	53.9278	21.9727	55.8205	21.9727	53.9212	21.9727	55.7777	21.9727	53.9371	21.9727	55.7074	21.9727	53.9749	21.9727	55.6126	21.9727	54.034	21.9727	55.4969	21.9727	54.1138	21.9727	55.3643	21.9727	54.2128	21.9727	55.2192	21.9727	54.329	21.9727	55.066	21.9727	54.4599	21.9727	54.9093	21.9727	54.6025	21.9727	54.7535
23.4375	56.9151	23.4375	57.1259	23.4375	56.6964	23.4375	57.3211	23.4375	56.4788	23.4375	57.4942	23.4375	56.2712	23.4375	57.6404	23.4375	56.0819	23.4375	57.7561	23.4375	55.918	23.4375	57.8394	23.4375	55.7842	23.4375	57.8894	23.4375	55.6836	23.4375	57.9058	23.4375	55.6176	23.4375	57.8896	23.4375	55.587	23.4375	57.8421	23.4375	55.5918	23.4375	57.7652	23.4375	55.6317	23.4375	57.6612	23.4375	55.7057	23.4375	57.533	23.4375	55.8112	23.4375	57.3836	23.4375	55.9448	23.4375	57.2169	23.4375	56.1014	23.4375	57.0368	23.4375	56.2758	23.4375	56.8478	23.4375	56.462	23.4375	56.6544
24.9023	59.1607	24.9023	59.3241	24.9023	58.9903	24.9023	59.4744	24.9023	58.8198	24.9023	59.6065	24.9023	58.6558	24.9023	59.7164	24.9023	58.5046	24.9023	59.8011	24.9023	58.3712	24.9023	59.859	24.9023	58.2593	24.9023	59.8892	24.9023	58.1709	24.9023	59.8916	24.9023	58.1071	24.9023	59.8671	24.9023	58.0686	24.9023	59.8167	24.9023	58.0557	24.9023	59.7424	24.9023	58.0688	24.9023	59.6464	24.9023	58.108	24.9023	59.5313	24.9023	58.1726	24.9023	59.4003	24.9023	58.2611	24.9023	59.2568	24.9023	58.3711	24.9023	59.1049	24.9023	58.4991	24.9023	58.9486	24.9023	58.641	24.9023	58.7924
26.3672	61.1647	26.3672	61.3049	26.3672	61.0158	26.3672	61.4317	26.3672	60.8636	26.3672	61.5408	26.3672	60.7136	26.3672	61.629	26.3672	60.5708	26.3672	61.694	26.3672	60.4394	26.3672	61.7342	26.3672	60.3229	26.3672	61.7492	26.3672	60.2237	26.3672	61.7387	26.3672	60.1435	26.3672	61.7035	26.3672	60.084	26.3672	61.6447	26.3672	60.0467	26.3672	61.5638	26.3672	60.0333	26.3672	61.463	26.3672	60.0454	26.3672	61.3448	26.3672	60.0838	26.3672	61.2123	26.3672	60.1482	26.3672	61.0689	26.3672	60.2371	26.3672	60.9189	26.3672	60.3477	26.3672	60.7668	26.3672	60.476	26.3672	60.6174
27.832	63.4503	27.832	63.5478	27.832	63.3466	27.832	63.6355	27.832	63.2406	27.832	63.71	27.832	63.1362	27.832	63.7689	27.832	63.0367	27.832	63.8102	27.832	62.9448	27.832	63.8327	27.832	62.8626	27.832	63.836	27.832	62.7917	27.832	63.8203	27.832	62.7331	27.832	63.7863	27.832	62.6879	27.832	63.7354	27.832	62.6573	27.832	63.6693	27.832	62.6425	27.832	63.5901	27.832	62.6445	27.832	63.5002	27.832	62.6639	27.832	63.4026	27.832	62.7007	27.832	63.3	27.832	62.7538	27.832	63.1956	27.832	62.8219	27.832	63.0926	27.832	62.9028	27.832	62.994
29.2969	65.3804	29.2969	65.4662	29.2969	65.2864	29.2969	65.5407	29.2969	65.1876	29.2969	65.6013	29.2969	65.0873	29.2969	65.646	29.2969	64.9885	29.2969	65.6731	29.2969	64.8938	29.2969	65.6818	29.2969	64.8054	29.2969	65.6719	29.2969	64.7251	29.2969	65.6436	29.2969	64.6541	29.2969	65.5978	29.2969	64.5938	29.2969	65.5358	29.2969	64.5459	29.2969	65.4594	29.2969	64.512	29.2969	65.3708	29.2969	64.4937	29.2969	65.2727	29.2969	64.4925	29.2969	65.168	29.2969	64.5096	29.2969	65.06	29.2969	64.5453	29.2969	64.9525	29.2969	64.5989	29.2969	64.8491	29.2969	64.669	29.2969	64.7534
30.7617	67.3265	30.7617	67.3888	30.7617	67.2561	30.7617	67.4406	30.7617	67.1802	30.7617	67.4801	30.7617	67.1015	30.7617	67.5058	30.7617	67.0224	30.7617	67.5169	30.7617	66.9454	30.7617	67.513	30.7617	66.8721	30.7617	67.4942	30.7617	66.8044	30.7617	67.4614	30.7617	66.7434	30.7617	67.4156	30.7617	66.6905	30.7617	67.3583	30.7617	66.647	30.7617	67.2914	30.7617	66.6143	30.7617	67.2169	30.7617	66.5936	30.7617	67.1373	30.7617	66.5861	30.7617	67.055	30.7617	66.5923	30.7617	66.9726	30.7617	66.6125	30.7617	66.8928	30.7617	66.6463	30.7617	66.818	30.7617	66.6928	30.7617	66.7507
32.2266	68.8786	32.2266	68.9219	32.2266	68.826	32.2266	68.9542	32.2266	68.7658	32.2266	68.9743	32.2266	68.7001	32.2266	68.9812	32.2266	68.631	32.2266	68.9746	32.2266	68.5602	32.2266	68.9545	32.2266	68.4897	32.2266	68.9213	32.2266	68.4211	32.2266	68.8761	32.2266	68.3559	32.2266	68.82	32.2266	68.2957	32.2266	68.7549	32.2266	68.2418	32.2266	68.6827	32.2266	68.1958	32.2266	68.6058	32.2266	68.159	32.2266	68.5267	32.2266	68.1329	32.2266	68.4482	32.2266	68.1186	32.2266	68.373	32.2266	68.117	32.2266	68.3037	32.2266	68.1288	32.2266	68.2428	32.2266	68.1541	32.2266	68.1924
33.6914	70.2391	33.6914	70.2661	33.6914	70.2024	33.6914	70.2825	33.6914	70.1574	33.6914	70.2876	33.6914	70.1053	33.6914	70.2808	33.6914	70.0474	33.6914	70.2623	33.6914	69.9853	33.6914	70.2322	33.6914	69.9202	33.6914	70.1913	33.6914	69.8537	33.6914	70.1407	33.6914	69.7873	33.6914	70.0816	33.6914	69.7226	33.6914	70.0159	33.6914	69.6615	33.6914	69.9455	33.6914	69.6061	33.6914	69.8725	33.6914	69.5582	33.6914	69.7994	33.6914	69.5199	33.6914	69.7287	33.6914	69.4928	33.6914	69.6626	33.6914	69.4783	33.6914	69.6037	33.6914	69.4772	33.6914	69.5542	33.6914	69.4898	33.6914	69.5157
35.1563	71.278	35.1563	71.2908	35.1563	71.2557	35.1563	71.2936	35.1563	71.2245	35.1563	71.286	35.1563	71.1854	35.1563	71.268	35.1563	71.1393	35.1563	71.2401	35.1563	71.0872	35.1563	71.2027	35.1563	71.0302	35.1563	71.1568	35.1563	70.9698	35.1563	71.1036	35.1563	70.9072	35.1563	71.0446	35.1563	70.8442	35.1563	70.9815	35.1563	70.7826	35.1563	70.9161	35.1563	70.7244	35.1563	70.8506	35.1563	70.6719	35.1563	70.7869	35.1563	70.627	35.1563	70.7272	35.1563	70.5915	35.1563	70.6737	35.1563	70.5671	35.1563	70.6281	35.1563	70.5546	35.1563	70.5922	35.1563	70.5547	35.1563	70.5674
36.6211	71.9036	36.6211	71.9061	36.6211	71.8909	36.6211	71.8982	36.6211	71.8683	36.6211	71.8801	36.6211	71.8364	36.6211	71.852	36.6211	71.7959	36.6211	71.8146	36.6211	71.7478	36.6211	71.7689	36.6211	71.693	36.6211	71.716	36.6211	71.6328	36.6211	71.6573	36.6211	71.5689	36.6211	71.5944	36.6211	71.503	36.6211	71.5293	36.6211	71.4373	36.6211	71.4639	36.6211	71.3739	36.6211	71.4001	36.6211	71.3151	36.6211	71.3401	36.6211	71.2631	36.6211	71.2859	36.6211	71.2199	36.6211	71.2392	36.6211	71.187	36.6211	71.2017	36.6211	71.1656	36.6211	71.1748	36.6211	71.1563	36.6211	71.1594
38.0859	72.43	38.0859	72.4213	38.0859	72.4282	38.0859	72.4024	38.0859	72.4158	38.0859	72.3736	38.0859	72.3933	38.0859	72.3356	38.0859	72.3608	38.0859	72.2895	38.0859	72.3192	38.0859	72.2362	38.0859	72.2692	38.0859	72.1773	38.0859	72.2121	38.0859	72.1142	38.0859	72.1494	38.0859	72.0488	38.0859	72.0828	38.0859	71.9829	38.0859	72.0145	38.0859	71.9186	38.0859	71.9467	38.0859	71.8577	38.0859	71.8818	38.0859	71.8024	38.0859	71.8222	38.0859	71.7545	38.0859	71.7699	38.0859	71.7156	38.0859	71.7268	38.0859	71.6872	38.0859	71.6945	38.0859	71.6704	38.0859	71.674	38.0859	71.6659
39.5508	72.7594	39.5508	72.7413	39.5508	72.767	39.5508	72.7131	39.5508	72.7637	39.5508	72.6757	39.5508	72.7494	39.5508	72.63	39.5508	72.7243	39.5508	72.5772	39.5508	72.6888	39.5508	72.5188	39.5508	72.6439	39.5508	72.4563	39.5508	72.5904	39.5508	72.3914	39.5508	72.5301	39.5508	72.3261	39.5508	72.4647	39.5508	72.2622	39.5508	72.3964	39.5508	72.2016	39.5508	72.3274	39.5508	72.1462	39.5508	72.2601	39.5508	72.0978	39.5508	72.1969	39.5508	72.058	39.5508	72.14	39.5508	72.0281	39.5508	72.0911	39.5508	72.0092	39.5508	72.0519	39.5508	72.0019	39.5508	72.0235	39.5508	72.0067
41.0156	72.9782	41.0156	72.9537	41.0156	72.9914	41.0156	72.9187	41.0156	72.9927	41.0156	72.8742	41.0156	72.9822	41.0156	72.8213	41.0156	72.9597	41.0156	72.7616	41.0156	72.9259	41.0156	72.6967	41.0156	72.8817	41.0156	72.6283	41.0156	72.8282	41.0156	72.5586	41.0156	72.7671	41.0156	72.4895	41.0156	72.7003	41.0156	72.423	41.0156	72.6301	41.0156	72.3614	41.0156	72.5586	41.0156	72.3065	41.0156	72.4882	41.0156	72.2601	41.0156	72.421	41.0156	72.2238	41.0156	72.359	41.0156	72.1988	41.0156	72.3043	41.0156	72.1859	41.0156	72.2583	41.0156	72.1857	41.0156	72.2225	41.0156	72.198
42.4805	73.2824	42.4805	73.2489	42.4805	73.3045	42.4805	73.2051	42.4805	73.3143	42.4805	73.1522	42.4805	73.3114	42.4805	73.0918	42.4805	73.2956	42.4805	73.0255	42.4805	73.267	42.4805	72.9551	42.4805	73.2264	42.4805	72.8827	42.4805	73.1747	42.4805	72.8102	42.4805	73.1137	42.4805	72.7398	42.4805	73.0453	42.4805	72.6735	42.4805	72.9718	42.4805	72.6134	42.4805	72.8957	42.4805	72.5613	42.4805	72.8196	42.4805	72.5188	42.4805	72.746	42.4805	72.4874	42.4805	72.6771	42.4805	72.4681	42.4805	72.6152	42.4805	72.4615	42.4805	72.5619	42.4805	72.4679	42.4805	72.5188	42.4805	72.4872
43.9453	73.423	43.9453	73.3841	43.9453	73.4502	43.9453	73.3346	43.9453	73.4646	43.9453	73.2762	43.9453	73.4657	43.9453	73.2105	43.9453	73.4531	43.9453	73.1395	43.9453	73.4272	43.9453	73.0651	43.9453	73.3884	43.9453	72.9895	43.9453	73.3381	43.9453	72.915	43.9453	73.2779	43.9453	72.8437	43.9453	73.2098	43.9453	72.7778	43.9453	73.1362	43.9453	72.7192	43.9453	73.0595	43.9453	72.6698	43.9453	72.9821	43.9453	72.6312	43.9453	72.9066	43.9453	72.6044	43.9453	72.8351	43.9453	72.5904	43.9453	72.7696	43.9453	72.5895	43.9453	72.7121	43.9453	72.6018	43.9453	72.6641	43.9453	72.6269
45.4102	73.5766	45.4102	73.5341	45.4102	73.6065	45.4102	73.4805	45.4102	73.6229	45.4102	73.4175	45.4102	73.6249	45.4102	73.3469	45.4102	73.6124	45.4102	73.2709	45.4102	73.5856	45.4102	73.1916	45.4102	73.5453	45.4102	73.1116	45.4102	73.4928	45.4102	73.033	45.4102	73.43	45.4102	72.9584	45.4102	73.359	45.4102	72.8899	45.4102	73.2823	45.4102	72.8296	45.4102	73.2025	45.4102	72.7794	45.4102	73.122	45.4102	72.7408	45.4102	73.0433	45.4102	72.715	45.4102	72.9687	45.4102	72.7027	45.4102	72.9	45.4102	72.7042	45.4102	72.8391	45.4102	72.7193	45.4102	72.7878	45.4102	72.7474
46.875	73.8099	46.875	73.7603	46.875	73.8465	46.875	73.6995	46.875	73.8687	46.875	73.6293	46.875	73.8758	46.875	73.5518	46.875	73.867	46.875	73.4695	46.875	73.8426	46.875	73.3846	46.875	73.8032	46.875	73.2996	46.875	73.7501	46.875	73.2169	46.875	73.6852	46.875	73.1389	46.875	73.6106	46.875	73.068	46.875	73.5292	46.875	73.0061	46.875	73.4435	46.875	72.9552	46.875	73.3564	46.875	72.9168	46.875	73.2705	46.875	72.8921	46.875	73.1882	46.875	72.8819	46.875	73.1118	46.875	72.8864	46.875	73.0436	46.875	72.9056	46.875	72.9854	46.875	72.9389
48.3398	73.9837	48.3398	73.9285	48.3398	74.0263	48.3398	73.8627	48.3398	74.0547	48.3398	73.7882	48.3398	74.0677	48.3398	73.7075	48.3398	74.0644	48.3398	73.623	48.3398	74.0448	48.3398	73.537	48.3398	74.0091	48.3398	73.452	48.3398	73.9585	48.3398	73.3704	48.3398	73.8948	48.3398	73.2946	48.3398	73.8202	48.3398	73.2267	48.3398	73.7374	48.3398	73.1685	48.3398	73.6496	48.3398	73.1216	48.3398	73.5598	48.3398	73.0875	48.3398	73.471	48.3398	73.0669	48.3398	73.3858	48.3398	73.0606	48.3398	73.3069	48.3398	73.0686	48.3398	73.2363	48.3398	73.0909	48.3398	73.1758	48.3398	73.1269
51.2695	74.3663	51.2695	74.3043	51.2695	74.4159	51.2695	74.2322	51.2695	74.4516	51.2695	74.1523	51.2695	74.4719	51.2695	74.0672	51.2695	74.4759	51.2695	73.9797	51.2695	74.4635	51.2695	73.8924	51.2695	74.4352	51.2695	73.8082	51.2695	74.3918	51.2695	73.7295	51.2695	74.3352	51.2695	73.6588	51.2695	74.2676	51.2695	73.5982	51.2695	74.1917	51.2695	73.5495	51.2695	74.1102	51.2695	73.514	51.2695	74.0261	51.2695	73.4925	51.2695	73.9418	51.2695	73.4853	51.2695	73.8599	51.2695	73.4923	51.2695	73.7822	51.2695	73.5129	51.2695	73.7105	51.2695	73.5463	51.2695	73.6464	51.2695	73.5912
52.7344	74.5573	52.7344	74.4914	52.7344	74.6108	52.7344	74.4154	52.7344	74.6499	52.7344	74.3317	52.7344	74.6734	52.7344	74.243	52.7344	74.6804	52.7344	74.1524	52.7344	74.6706	52.7344	74.0626	52.7344	74.6446	52.7344	73.9765	52.7344	74.6035	52.7344	73.8968	52.7344	74.549	52.7344	73.826	52.7344	74.4835	52.7344	73.7662	52.7344	74.4094	52.7344	73.7192	52.7344	74.3293	52.7344	73.6863	52.7344	74.2458	52.7344	73.6683	52.7344	74.1612	52.7344	73.6653	52.7344	74.0777	52.7344	73.6771	52.7344	73.9973	52.7344	73.7029	52.7344	73.9217	52.7344	73.7418	52.7344	73.8528	52.7344	73.7923
54.1992	74.6894	54.1992	74.6218	54.1992	74.7449	54.1992	74.5442	54.1992	74.7863	54.1992	74.4595	54.1992	74.8121	54.1992	74.3704	54.1992	74.8214	54.1992	74.2799	54.1992	74.814	54.1992	74.1909	54.1992	74.7905	54.1992	74.1063	54.1992	74.7519	54.1992	74.0289	54.1992	74.7001	54.1992	73.9612	54.1992	74.6372	54.1992	73.9051	54.1992	74.5659	54.1992	73.8624	54.1992	74.4887	54.1992	73.834	54.1992	74.4081	54.1992	73.8207	54.1992	74.3262	54.1992	73.8222	54.1992	74.2451	54.1992	73.8382	54.1992	74.1664	54.1992	73.8677	54.1992	74.0919	54.1992	73.9094	54.1992	74.0231	54.1992	73.9618
55.6641	74.8917	55.6641	74.8215	55.6641	74.9486	55.6641	74.7403	55.6641	74.9903	55.6641	74.651	55.6641	75.0153	55.6641	74.5567	55.6641	75.0231	55.6641	74.4605	55.6641	75.0137	55.6641	74.3658	55.6641	74.988	55.6641	74.276	55.6641	74.9474	55.6641	74.194	55.6641	74.894	55.6641	74.1228	55.6641	74.8305	55.6641	74.0647	55.6641	74.7592	55.6641	74.0214	55.6641	74.6827	55.6641	73.9942	55.6641	74.6032	55.6641	73.9836	55.6641	74.5224	55.6641	73.9892	55.6641	74.4419	55.6641	74.0102	55.6641	74.3629	55.6641	74.0452	55.6641	74.2868	55.6641	74.0924	55.6641	74.2152	55.6641	74.1498
58.5938	75.4775	58.5938	75.3979	58.5938	75.542	58.5938	75.3062	58.5938	75.589	58.5938	75.2053	58.5938	75.6169	58.5938	75.0988	58.5938	75.6245	58.5938	74.9901	58.5938	75.6116	58.5938	74.8827	58.5938	75.5787	58.5938	74.78	58.5938	75.5274	58.5938	74.6853	58.5938	75.4599	58.5938	74.6014	58.5938	75.3792	58.5938	74.5307	58.5938	75.2886	58.5938	74.4752	58.5938	75.1914	58.5938	74.4363	58.5938	75.0908	58.5938	74.4148	58.5938	74.9897	58.5938	74.4109	58.5938	74.8907	58.5938	74.4241	58.5938	74.7959	58.5938	74.4537	58.5938	74.7074	58.5938	74.4985	58.5938	74.6271	58.5938	74.5568
60.0586	75.6909	60.0586	75.6086	60.0586	75.758	60.0586	75.514	60.0586	75.8075	60.0586	75.4105	60.0586	75.8375	60.0586	75.3016	60.0586	75.8469	60.0586	75.1909	60.0586	75.8355	60.0586	75.0821	60.0586	75.804	60.0586	74.9787	60.0586	75.7539	60.0586	74.8839	60.0586	75.6876	60.0586	74.8008	60.0586	75.6082	60.0586	74.7318	60.0586	75.5188	60.0586	74.6788	60.0586	75.4229	60.0586	74.643	60.0586	75.3235	60.0586	74.625	60.0586	75.2233	60.0586	74.625	60.0586	75.1247	60.0586	74.6423	60.0586	75.0298	60.0586	74.6759	60.0586	74.9403	60.0586	74.7242	60.0586	74.8583	60.0586	74.7857
62.9883	76.1454	62.9883	76.057	62.9883	76.2185	62.9883	75.9564	62.9883	76.2736	62.9883	75.8471	62.9883	76.3087	62.9883	75.733	62.9883	76.3225	62.9883	75.6178	62.9883	76.3147	62.9883	75.5055	62.9883	76.2859	62.9883	75.3996	62.9883	76.2375	62.9883	75.3034	62.9883	76.172	62.9883	75.22	62.9883	76.0922	62.9883	75.1517	62.9883	76.0015	62.9883	75.1003	62.9883	75.9032	62.9883	75.0669	62.9883	75.8005	62.9883	75.052	62.9883	75.6963	62.9883	75.0555	62.9883	75.593	62.9883	75.0766	62.9883	75.4929	62.9883	75.1144	62.9883	75.3982	62.9883	75.1672	62.9883	75.3111	62.9883	75.2334
64.4531	76.3492	64.4531	76.2585	64.4531	76.4248	64.4531	76.156	64.4531	76.4826	64.4531	76.0453	64.4531	76.5206	64.4531	75.9303	64.4531	76.5376	64.4531	75.8148	64.4531	76.5333	64.4531	75.7029	64.4531	76.5081	64.4531	75.5983	64.4531	76.4637	64.4531	75.5045	64.4531	76.4024	64.4531	75.4242	64.4531	76.3271	64.4531	75.3599	64.4531	76.2409	64.4531	75.3134	64.4531	76.147	64.4531	75.2854	64.4531	76.0483	64.4531	75.2764	64.4531	75.9474	64.4531	75.2859	64.4531	75.8465	64.4531	75.3129	64.4531	75.7476	64.4531	75.3561	64.4531	75.6528	64.4531	75.4137	64.4531	75.5642	64.4531	75.4838
67.3828	76.8278	67.3828	76.7321	67.3828	76.9083	67.3828	76.6246	67.3828	76.9708	67.3828	76.5092	67.3828	77.0132	67.3828	76.3901	67.3828	77.034	67.3828	76.2715	67.3828	77.0331	67.3828	76.1575	67.3828	77.0111	67.3828	76.0522	67.3828	76.9695	67.3828	75.9591	67.3828	76.911	67.3828	75.8812	67.3828	76.8384	67.3828	75.8208	67.3828	76.7549	67.3828	75.7796	67.3828	76.6638	67.3828	75.7582	67.3828	76.5677	67.3828	75.7566	67.3828	76.4689	67.3828	75.774	67.3828	76.3694	67.3828	75.8089	67.3828	76.2709	67.3828	75.8597	67.3828	76.1751	67.3828	75.924	67.3828	76.0839	67.3828	75.9995
68.8477	77.0579	68.8477	76.9588	68.8477	77.1415	68.8477	76.8476	68.8477	77.2066	68.8477	76.7284	68.8477	77.251	68.8477	76.6056	68.8477	77.2732	68.8477	76.4836	68.8477	77.2731	68.8477	76.3668	68.8477	77.2514	68.8477	76.2593	68.8477	77.2097	68.8477	76.1648	68.8477	77.1507	68.8477	76.0865	68.8477	77.0775	68.8477	76.0268	68.8477	76.9936	68.8477	75.9872	68.8477	76.902	68.8477	75.9684	68.8477	76.8055	68.8477	75.9701	68.8477	76.7066	68.8477	75.9913	68.8477	76.6068	68.8477	76.0303	68.8477	76.5077	68.8477	76.085	68.8477	76.411	68.8477	76.1529	68.8477	76.3182	68.8477	76.2315
