"Early Reflections"											
"Floor Bounce"		"Ceiling Bounce"		"Front Wall Bounce"		"Side Wall Bounce"		"Rear Wall Bounce"		"Total Early Reflection"	
"Frequency [Hz]"	"Sound Pessure Level [dB]  / [2.83V 1m] "	"Frequency [Hz]"	"Sound Pessure Level [dB]  / [2.83V 1m] "	"Frequency [Hz]"	"Sound Pessure Level [dB]  / [2.83V 1m] "	"Frequency [Hz]"	"Sound Pessure Level [dB]  / [2.83V 1m] "	"Frequency [Hz]"	"Sound Pessure Level [dB]  / [2.83V 1m] "	"Frequency [Hz]"	"Sound Pessure Level [dB]  / [2.83V 1m] "
20.5078	40.9211	20.5078	32.3374	20.5078	39.3821	20.5078	34.5766	20.5078	43.6708	20.5078	38.8927
21.9727	41.3945	21.9727	35.2116	21.9727	39.9817	21.9727	36.2237	21.9727	45.9067	21.9727	40.3193
23.4375	43.754	23.4375	37.3633	23.4375	42.4642	23.4375	38.6734	23.4375	46.5848	23.4375	42.0966
24.9023	45.0561	24.9023	40.2133	24.9023	43.9096	24.9023	41.0286	24.9023	48.4305	24.9023	43.8818
26.3672	46.4666	26.3672	42.5157	26.3672	45.4611	26.3672	43.1561	26.3672	49.9241	26.3672	45.5551
27.832	48.2302	27.832	44.6034	27.832	47.3061	27.832	45.2358	27.832	51.2012	27.832	47.2869
29.2969	49.9742	29.2969	46.9738	29.2969	49.1671	29.2969	47.5283	29.2969	52.666	29.2969	49.1662
30.7617	51.571	30.7617	48.8585	30.7617	50.8315	30.7617	49.3851	30.7617	53.976	30.7617	50.8008
32.2266	53.1768	32.2266	50.9514	32.2266	52.5327	32.2266	51.4069	32.2266	55.4607	32.2266	52.5607
33.6914	54.8941	33.6914	52.8478	33.6914	54.2982	33.6914	53.3057	33.6914	56.7634	33.6914	54.2712
35.1563	56.387	35.1563	54.6435	35.1563	55.8555	35.1563	55.0493	35.1563	58.2017	35.1563	55.8747
36.6211	58.0468	36.6211	56.3931	36.6211	57.5474	36.6211	56.8088	36.6211	59.5064	36.6211	57.5158
38.0859	59.3818	38.0859	57.9167	38.0859	58.9179	38.0859	58.2989	38.0859	60.8003	38.0859	58.9212
39.5508	60.9261	39.5508	59.725	39.5508	60.5238	39.5508	60.0558	39.5508	62.2812	39.5508	60.5673
41.0156	62.8193	41.0156	61.5786	41.0156	62.4593	41.0156	61.9085	41.0156	63.5416	41.0156	62.3522
42.4805	63.8825	42.4805	62.6801	42.4805	63.5189	42.4805	63.0404	42.4805	64.6803	42.4805	63.4535
43.9453	65.0784	43.9453	63.905	43.9453	64.7201	43.9453	64.2748	43.9453	65.8059	43.9453	64.6565
45.4102	66.3958	45.4102	65.3346	45.4102	66.0481	45.4102	65.7061	45.4102	67.1073	45.4102	66.0258
46.875	67.6776	46.875	66.6875	46.875	67.3529	46.875	67.037	46.875	68.2584	46.875	67.3195
48.3398	68.9092	48.3398	67.9153	48.3398	68.596	48.3398	68.2638	48.3398	69.3365	48.3398	68.5304
51.2695	71.074	51.2695	70.1961	51.2695	70.7713	51.2695	70.5532	51.2695	71.4837	51.2695	70.7528
52.7344	72.1833	52.7344	71.3392	52.7344	71.8927	52.7344	71.6872	52.7344	72.5003	52.7344	71.8654
54.1992	73.1733	54.1992	72.3664	54.1992	72.8934	54.1992	72.7062	54.1992	73.4274	54.1992	72.8645
55.6641	74.1138	55.6641	73.3507	55.6641	73.8479	55.6641	73.6794	55.6641	74.333	55.6641	73.8209
58.5938	75.9162	58.5938	75.1868	58.5938	75.6567	58.5938	75.5229	58.5938	76.0527	58.5938	75.6333
60.0586	76.8579	60.0586	76.1341	60.0586	76.6003	60.0586	76.472	60.0586	76.9333	60.0586	76.5711
62.9883	78.5327	62.9883	77.8796	62.9883	78.289	62.9883	78.2077	62.9883	78.6206	62.9883	78.2816
64.4531	79.1706	64.4531	78.5538	64.4531	78.9341	64.4531	78.8797	64.4531	79.2703	64.4531	78.9397
67.3828	80.1171	67.3828	79.5236	67.3828	79.8829	67.3828	79.8557	67.3828	80.1755	67.3828	79.8954
68.8477	80.4859	68.8477	79.8909	68.8477	80.2493	68.8477	80.2288	68.8477	80.5116	68.8477	80.2609
71.7773	81.385	71.7773	80.8495	71.7773	81.1579	71.7773	81.1804	71.7773	81.4444	71.7773	81.1932
74.707	81.7298	74.707	81.2602	74.707	81.5199	74.707	81.574	74.707	81.7927	74.707	81.5687
77.6367	81.7157	77.6367	81.2404	77.6367	81.5021	77.6367	81.5623	77.6367	81.7193	77.6367	81.5469
79.1016	81.8745	79.1016	81.4218	79.1016	81.6646	79.1016	81.7427	79.1016	81.8952	79.1016	81.7195
82.0313	82.2108	82.0313	81.7996	82.0313	82.0188	82.0313	82.101	82.0313	82.1885	82.0313	82.0684
84.9609	82.0836	84.9609	81.6868	84.9609	81.9086	84.9609	81.9632	84.9609	81.9461	84.9609	81.9297
87.8906	82.1207	87.8906	81.7294	87.8906	81.941	87.8906	82.0104	87.8906	81.9934	87.8906	81.9712
90.8203	81.9525	90.8203	81.5636	90.8203	81.7139	90.8203	81.9507	90.8203	82.262	90.8203	81.8829
95.2148	82.0724	95.2148	81.7861	95.2148	81.9376	95.2148	82.02	95.2148	81.8797	95.2148	81.9615
98.1445	81.9228	98.1445	81.6271	98.1445	81.7533	98.1445	81.9092	98.1445	81.8937	98.1445	81.8356
101.074	82.0923	101.074	81.8264	101.074	81.9358	101.074	82.093	101.074	82.0637	101.074	82.0175
105.469	81.9185	105.469	81.672	105.469	81.7575	105.469	81.943	105.469	81.951	105.469	81.8611
108.398	81.9718	108.398	81.7061	108.398	81.8119	108.398	81.9826	108.398	81.9372	108.398	81.8994
112.793	82.4098	112.793	82.1677	112.793	82.2685	112.793	82.414	112.793	82.2911	112.793	82.3326
117.188	82.2498	117.188	82.0095	117.188	82.1072	117.188	82.2449	117.188	82.1179	117.188	82.1674
120.117	82.7065	120.117	82.4803	120.117	82.5747	120.117	82.6876	120.117	82.529	120.117	82.6179
124.512	82.6158	124.512	82.3651	124.512	82.4701	124.512	82.6235	124.512	82.48	124.512	82.5359
128.906	82.5675	128.906	82.3244	128.906	82.4433	128.906	82.5772	128.906	82.3418	128.906	82.4848
133.301	82.6903	133.301	82.4595	133.301	82.566	133.301	82.6714	133.301	82.4115	133.301	82.5919
139.16	82.7153	139.16	82.4892	139.16	82.5717	139.16	82.7189	139.16	82.5512	139.16	82.6339
143.555	82.831	143.555	82.5664	143.555	82.677	143.555	82.8012	143.555	82.6309	143.555	82.7254
147.949	82.7466	147.949	82.4844	147.949	82.5921	147.949	82.7325	147.949	82.6133	147.949	82.6548
153.809	83.1033	153.809	82.7131	153.809	82.9453	153.809	82.9674	153.809	82.6665	153.809	82.915
159.668	83.4195	159.668	82.9791	159.668	83.2345	159.668	83.2379	159.668	82.8061	159.668	83.1816
165.527	83.4413	165.527	83.0265	165.527	83.2717	165.527	83.2882	165.527	82.9278	165.527	83.2322
171.387	83.3964	171.387	83.0213	171.387	83.2492	171.387	83.2586	171.387	82.9052	171.387	83.2061
177.246	83.3371	177.246	82.987	177.246	83.2004	177.246	83.1805	177.246	82.8123	177.246	83.1415
183.105	83.3118	183.105	82.9201	183.105	83.1656	183.105	83.1083	183.105	82.702	183.105	83.0818
188.965	83.417	188.965	82.9307	188.965	83.265	188.965	83.1458	188.965	82.6753	188.965	83.135
196.289	83.5667	196.289	83.1015	196.289	83.4304	196.289	83.3026	196.289	82.7613	196.289	83.2875
203.613	83.4856	203.613	82.9967	203.613	83.3576	203.613	83.1034	203.613	82.481	203.613	83.1408
210.938	83.5642	210.938	82.8399	210.938	83.3772	210.938	83.1292	210.938	82.4461	210.938	83.1454
218.262	83.5023	218.262	82.8559	218.262	83.3397	218.262	83.0868	218.262	82.4195	218.262	83.1099
225.586	83.4547	225.586	82.7927	225.586	83.3255	225.586	83.0124	225.586	82.3462	225.586	83.0573
232.91	83.4357	232.91	82.8676	232.91	83.3661	232.91	82.9541	232.91	82.0949	232.91	83.0287
241.699	83.4523	241.699	82.7885	241.699	83.3271	241.699	82.8575	241.699	81.956	241.699	82.9615
250.488	83.4935	250.488	82.5339	250.488	83.2866	250.488	82.725	250.488	81.7094	250.488	82.8553
259.277	83.6166	259.277	82.8192	259.277	83.4786	259.277	82.9894	259.277	81.9249	259.277	83.0776
268.066	83.1777	268.066	82.2442	268.066	82.9345	268.066	82.3867	268.066	81.3877	268.066	82.5227
276.855	83.17	276.855	82.1371	276.855	82.9986	276.855	82.3512	276.855	81.1948	276.855	82.4993
287.109	83.3497	287.109	82.5051	287.109	83.3047	287.109	82.6292	287.109	81.2622	287.109	82.7648
297.363	83.2341	297.363	82.5112	297.363	83.2901	297.363	82.5605	297.363	81.0742	297.363	82.7052
307.617	83.0573	307.617	82.2715	307.617	82.9724	307.617	82.5884	307.617	81.4045	307.617	82.5988
319.336	82.5603	319.336	81.9195	319.336	82.4549	319.336	82.0177	319.336	81.0102	319.336	82.0926
329.59	82.4708	329.59	81.8508	329.59	82.4039	329.59	81.7515	329.59	80.6461	329.59	81.9267
341.309	82.247	341.309	81.3285	341.309	81.9462	341.309	81.0757	341.309	80.3048	341.309	81.4245
353.027	82.6676	353.027	80.414	353.027	82.1901	353.027	80.8617	353.027	79.4045	353.027	81.3213
366.211	83.1232	366.211	80.3925	366.211	82.7303	366.211	81.2219	366.211	79.3358	366.211	81.6926
379.395	83.6649	379.395	81.5823	379.395	83.618	379.395	81.9837	379.395	80.349	379.395	82.519
392.578	83.4881	392.578	81.6863	392.578	83.4031	392.578	81.881	392.578	80.2491	392.578	82.3867
405.762	83.0565	405.762	81.2193	405.762	82.9748	405.762	81.2268	405.762	79.4854	405.762	81.8547
420.41	83.5304	420.41	81.5419	420.41	83.4853	420.41	81.8699	420.41	79.5715	420.41	82.3591
435.059	83.0071	435.059	81.3911	435.059	83.0112	435.059	81.6219	435.059	79.6791	435.059	82.025
451.172	83.3011	451.172	81.1339	451.172	83.2949	451.172	81.6819	451.172	79.248	451.172	82.1353
465.82	83.0157	465.82	81.2878	465.82	83.1383	465.82	81.6265	465.82	79.2429	465.82	82.0333
483.398	82.8468	483.398	80.9784	483.398	82.8496	483.398	81.297	483.398	78.849	483.398	81.7397
499.512	82.885	499.512	80.8347	499.512	82.897	499.512	81.3051	499.512	78.8869	499.512	81.7533
517.09	82.9705	517.09	80.8656	517.09	82.9775	517.09	81.3181	517.09	78.86	517.09	81.8003
536.133	82.3756	536.133	79.9855	536.133	82.3851	536.133	80.6204	536.133	78.1176	536.133	81.1366
555.176	82.8671	555.176	80.016	555.176	83.1076	555.176	81.3882	555.176	78.0227	555.176	81.7389
574.219	82.7914	574.219	80.3978	574.219	82.9346	574.219	81.6143	574.219	78.3528	574.219	81.7948
594.727	81.9778	594.727	80.0805	594.727	82.2363	594.727	81.2721	594.727	78.5042	594.727	81.2947
615.234	81.1488	615.234	79.0632	615.234	81.6582	615.234	81.4015	615.234	79.0345	615.234	81.0079
637.207	81.9595	637.207	77.9864	637.207	82.0591	637.207	81.3824	637.207	80.2066	637.207	81.2583
659.18	82.5313	659.18	79.3063	659.18	82.8335	659.18	81.3395	659.18	79.2941	659.18	81.5946
682.617	82.5381	682.617	79.3265	682.617	82.9205	682.617	81.3224	682.617	79.3602	682.617	81.6267
707.52	83.2757	707.52	79.6564	707.52	83.3546	707.52	81.7027	707.52	79.4752	707.52	82.0583
732.422	83.0238	732.422	80.3645	732.422	83.4919	732.422	81.7594	732.422	79.4526	732.422	82.1406
757.324	83.1968	757.324	80.6454	757.324	83.6776	757.324	81.9557	757.324	79.9243	757.324	82.3539
785.156	83.9068	785.156	81.3955	785.156	84.0371	785.156	81.9622	785.156	79.8626	785.156	82.6504
811.523	83.333	811.523	81.2528	811.523	83.8028	811.523	81.529	811.523	79.3687	811.523	82.2929
840.82	83.5099	840.82	81.0505	840.82	84.0487	840.82	81.2804	840.82	79.2369	840.82	82.3123
870.117	83.0573	870.117	81.0401	870.117	84.033	870.117	81.0749	870.117	78.5785	870.117	82.1408
900.879	83.3318	900.879	81.0741	900.879	84.5604	900.879	81.4937	900.879	78.7826	900.879	82.5415
933.105	82.8957	933.105	81.0092	933.105	84.5227	933.105	81.4055	933.105	78.6599	933.105	82.429
965.332	83.2792	965.332	80.7621	965.332	84.7028	965.332	81.4907	965.332	78.1458	965.332	82.5418
1,000.49	82.9475	1,000.49	80.1748	1,000.49	84.5897	1,000.49	81.1841	1,000.49	77.7263	1,000.49	82.2936
1,035.64	82.9097	1,035.64	80.6911	1,035.64	84.0161	1,035.64	80.7104	1,035.64	77.0445	1,035.64	81.906
1,072.27	82.7215	1,072.27	81.0252	1,072.27	83.5931	1,072.27	80.2512	1,072.27	76.1081	1,072.27	81.5607
1,108.89	82.8755	1,108.89	81.0093	1,108.89	83.2695	1,108.89	79.9252	1,108.89	75.0879	1,108.89	81.3231
1,148.44	82.9851	1,148.44	80.4409	1,148.44	83.1553	1,148.44	79.9662	1,148.44	74.8766	1,148.44	81.2417
1,189.45	82.8958	1,189.45	79.7919	1,189.45	83.9057	1,189.45	80.3811	1,189.45	74.6473	1,189.45	81.6138
1,230.47	82.9189	1,230.47	80.088	1,230.47	83.9669	1,230.47	80.6674	1,230.47	75.5527	1,230.47	81.7748
1,274.41	82.9815	1,274.41	80.4887	1,274.41	83.8303	1,274.41	80.6997	1,274.41	74.7351	1,274.41	81.7462
1,319.82	83.3906	1,319.82	78.9382	1,319.82	83.5124	1,319.82	80.7316	1,319.82	74.7868	1,319.82	81.5734
1,366.7	83.3466	1,366.7	79.5068	1,366.7	83.3385	1,366.7	80.3254	1,366.7	74.451	1,366.7	81.3981
1,413.57	83.0504	1,413.57	79.9072	1,413.57	82.8925	1,413.57	79.8002	1,413.57	74.0136	1,413.57	81.0254
1,463.38	83.049	1,463.38	78.9246	1,463.38	82.9501	1,463.38	79.3863	1,463.38	74.0876	1,463.38	80.8546
1,516.11	83.6591	1,516.11	78.9965	1,516.11	83.5981	1,516.11	79.3279	1,516.11	74.4171	1,516.11	81.2626
1,568.85	83.8635	1,568.85	79.1345	1,568.85	84.2826	1,568.85	79.7673	1,568.85	74.3758	1,568.85	81.7415
1,624.51	84.1359	1,624.51	79.489	1,624.51	83.9046	1,624.51	79.4949	1,624.51	73.6335	1,624.51	81.5601
1,681.64	83.9488	1,681.64	80.7151	1,681.64	82.8465	1,681.64	79.6119	1,681.64	75.0106	1,681.64	81.2363
1,741.7	83.9113	1,741.7	79.5102	1,741.7	83.6844	1,741.7	79.2444	1,741.7	75.3809	1,741.7	81.3955
1,803.22	83.5073	1,803.22	78.8299	1,803.22	83.6235	1,803.22	79.4891	1,803.22	74.761	1,803.22	81.2823
1,866.21	83.0738	1,866.21	78.9748	1,866.21	83.6137	1,866.21	79.3736	1,866.21	74.7222	1,866.21	81.1767
1,932.13	82.5088	1,932.13	79.3455	1,932.13	83.2719	1,932.13	79.0961	1,932.13	73.9314	1,932.13	80.8551
1,999.51	82.0754	1,999.51	79.5562	1,999.51	83.4174	1,999.51	79.3195	1,999.51	74.5835	1,999.51	80.9469
2,069.82	81.871	2,069.82	78.943	2,069.82	84.3732	2,069.82	80.2574	2,069.82	73.8077	2,069.82	81.586
2,143.07	81.6574	2,143.07	78.9366	2,143.07	83.6378	2,143.07	79.4736	2,143.07	72.4566	2,143.07	80.943
2,219.24	81.172	2,219.24	78.619	2,219.24	82.9683	2,219.24	78.6978	2,219.24	70.8428	2,219.24	80.2831
2,296.88	80.5864	2,296.88	79.0742	2,296.88	83.4639	2,296.88	79	2,296.88	72.4425	2,296.88	80.6024
2,378.91	80.4394	2,378.91	79.0659	2,378.91	84.2068	2,378.91	79.6524	2,378.91	74.3543	2,378.91	81.1941
2,462.4	80.2833	2,462.4	79.3562	2,462.4	83.3697	2,462.4	79.6973	2,462.4	74.1393	2,462.4	80.7781
2,548.83	79.6047	2,548.83	79.3189	2,548.83	82.8991	2,548.83	79.5881	2,548.83	74.348	2,548.83	80.4534
2,639.65	79.0496	2,639.65	79.57	2,639.65	83.451	2,639.65	80.4153	2,639.65	74.6539	2,639.65	80.9694
2,731.93	78.4085	2,731.93	80.5028	2,731.93	83.5355	2,731.93	80.8681	2,731.93	74.8395	2,731.93	81.2126
2,828.61	77.9778	2,828.61	81.4223	2,828.61	83.5668	2,828.61	81.3633	2,828.61	75.0081	2,828.61	81.4848
2,928.22	77.4754	2,928.22	81.5471	2,928.22	83.721	2,928.22	81.8185	2,928.22	75.3874	2,928.22	81.726
3,030.76	77.7053	3,030.76	81.9724	3,030.76	83.4485	3,030.76	81.6159	3,030.76	75.2703	3,030.76	81.5902
3,137.7	78.0685	3,137.7	82.3473	3,137.7	83.7	3,137.7	82.2033	3,137.7	75.409	3,137.7	81.9923
3,249.02	78.533	3,249.02	82.1362	3,249.02	83.3525	3,249.02	81.902	3,249.02	74.6086	3,249.02	81.7112
3,363.28	79.0259	3,363.28	82.3264	3,363.28	83.2952	3,363.28	81.6814	3,363.28	74.1783	3,363.28	81.6464
3,481.93	79.7002	3,481.93	82.1758	3,481.93	83.1113	3,481.93	81.5254	3,481.93	74.2814	3,481.93	81.5431
3,604.98	79.7391	3,604.98	82.3884	3,604.98	83.1083	3,604.98	81.0667	3,604.98	73.6551	3,604.98	81.392
3,732.42	79.3708	3,732.42	81.9182	3,732.42	82.9979	3,732.42	80.506	3,732.42	73.1759	3,732.42	81.046
3,864.26	79.4132	3,864.26	81.6599	3,864.26	82.8143	3,864.26	80.573	3,864.26	73.0711	3,864.26	80.9582
4,000.49	79.3559	4,000.49	81.179	4,000.49	82.9194	4,000.49	80.2365	4,000.49	73.1442	4,000.49	80.821
4,141.11	78.8988	4,141.11	80.7894	4,141.11	83.5389	4,141.11	80.2626	4,141.11	72.8123	4,141.11	81.0268
4,287.6	78.4782	4,287.6	80	4,287.6	83.2944	4,287.6	79.8905	4,287.6	72.7	4,287.6	80.6746
4,438.48	79.4248	4,438.48	79.4932	4,438.48	83.1044	4,438.48	80.4158	4,438.48	73.4826	4,438.48	80.8026
4,595.21	80.8515	4,595.21	78.9672	4,595.21	83.1701	4,595.21	79.8645	4,595.21	72.5873	4,595.21	80.7325
4,756.35	80.7685	4,756.35	78.9332	4,756.35	82.6715	4,756.35	79.8678	4,756.35	73.1411	4,756.35	80.5034
4,924.8	80.7135	4,924.8	78.6712	4,924.8	82.7926	4,924.8	79.8152	4,924.8	72.2581	4,924.8	80.4964
5,097.66	81.7424	5,097.66	78.6066	5,097.66	82.5429	5,097.66	79.2548	5,097.66	71.9874	5,097.66	80.3414
5,277.83	80.5517	5,277.83	78.523	5,277.83	82.6742	5,277.83	79.0351	5,277.83	70.8804	5,277.83	80.1436
5,463.87	80.839	5,463.87	78.6214	5,463.87	82.1269	5,463.87	78.5421	5,463.87	70.5886	5,463.87	79.784
5,657.23	82.6515	5,657.23	78.9824	5,657.23	82.1875	5,657.23	78.4455	5,657.23	68.8652	5,657.23	80.1159
5,856.45	82.3946	5,856.45	79.7402	5,856.45	82.3965	5,856.45	77.8	5,856.45	67.0917	5,856.45	80.0608
6,062.99	80.9347	6,062.99	79.814	6,062.99	82.3347	6,062.99	77.7355	6,062.99	67.7041	6,062.99	79.7757
6,276.86	81.0714	6,276.86	79.1771	6,276.86	82.3692	6,276.86	77.5815	6,276.86	67.7987	6,276.86	79.7083
6,498.05	80.9695	6,498.05	78.2295	6,498.05	82.2828	6,498.05	77.8276	6,498.05	69.4096	6,498.05	79.6365
6,726.56	80.6278	6,726.56	77.7183	6,726.56	82.3915	6,726.56	78.0266	6,726.56	69.3058	6,726.56	79.6497
6,963.87	80.0541	6,963.87	77.5107	6,963.87	81.8391	6,963.87	77.6973	6,963.87	69.2009	6,963.87	79.1855
7,209.96	79.9773	7,209.96	77.4149	7,209.96	81.3428	7,209.96	77.3755	7,209.96	68.2409	7,209.96	78.8256
7,464.84	79.5496	7,464.84	77.3224	7,464.84	80.7328	7,464.84	76.6157	7,464.84	67.1062	7,464.84	78.2438
7,727.05	79.2061	7,727.05	77.4976	7,727.05	80.5725	7,727.05	76.4752	7,727.05	66.8961	7,727.05	78.0928
7,999.51	79.3955	7,999.51	77.5943	7,999.51	80.9001	7,999.51	76.6352	7,999.51	66.402	7,999.51	78.3264
8,282.23	79.5648	8,282.23	77.5603	8,282.23	81.5943	8,282.23	76.9402	8,282.23	66.9331	8,282.23	78.7774
8,573.73	80.0279	8,573.73	77.2536	8,573.73	81.9563	8,573.73	77.1132	8,573.73	66.7364	8,573.73	79.048
8,876.95	79.802	8,876.95	76.884	8,876.95	81.8598	8,876.95	76.6359	8,876.95	65.9756	8,876.95	78.8168
9,188.96	80.0125	9,188.96	76.3638	9,188.96	81.6466	9,188.96	76.0329	9,188.96	64.96	9,188.96	78.5547
9,514.16	79.9771	9,514.16	76.0338	9,514.16	81.648	9,514.16	75.5885	9,514.16	63.625	9,514.16	78.4292
9,849.61	80.0868	9,849.61	75.6724	9,849.61	81.8154	9,849.61	75.3688	9,849.61	63.5298	9,849.61	78.4773
10,196.8	80.1424	10,196.8	75.1715	10,196.8	82.1317	10,196.8	75.3217	10,196.8	63.5242	10,196.8	78.6368
10,555.7	79.9581	10,555.7	74.5139	10,555.7	82.2607	10,555.7	75.4058	10,555.7	63.2075	10,555.7	78.6685
10,927.7	79.7663	10,927.7	74.1275	10,927.7	82.1008	10,927.7	75.1218	10,927.7	62.8785	10,927.7	78.471
11,313	79.9065	11,313	74.1917	11,313	81.7788	11,313	74.4186	11,313	61.5064	11,313	78.174
11,712.9	79.7651	11,712.9	74.5988	11,712.9	81.3466	11,712.9	73.0541	11,712.9	58.5565	11,712.9	77.6953
12,126	79.6078	12,126	74.6504	12,126	81.0926	12,126	71.8541	12,126	56.3231	12,126	77.3621
12,553.7	79.1328	12,553.7	73.9185	12,553.7	81.1345	12,553.7	71.725	12,553.7	58.976	12,553.7	77.2483
12,996.1	78.7256	12,996.1	72.3351	12,996.1	80.955	12,996.1	72.4087	12,996.1	60.4424	12,996.1	77.0714
13,454.6	77.7352	13,454.6	70.3667	13,454.6	80.824	13,454.6	72.7278	13,454.6	60.499	13,454.6	76.8115
13,929.2	77.1089	13,929.2	69.1211	13,929.2	80.682	13,929.2	72.4217	13,929.2	59.779	13,929.2	76.5514
14,419.9	76.9708	14,419.9	69.0685	14,419.9	80.5217	14,419.9	71.6902	14,419.9	59.2385	14,419.9	76.3152
14,928.2	77.1138	14,928.2	69.4164	14,928.2	80.5145	14,928.2	70.9088	14,928.2	58.409	14,928.2	76.2403
15,455.6	77.3851	15,455.6	69.5019	15,455.6	80.8678	15,455.6	70.7185	15,455.6	57.3711	15,455.6	76.5154
16,000.5	76.9487	16,000.5	67.5853	16,000.5	80.8696	16,000.5	70.6266	16,000.5	57.1382	16,000.5	76.4119
16,564.5	75.8361	16,564.5	64.8456	16,564.5	80.2109	16,564.5	69.1169	16,564.5	55.9857	16,564.5	75.5898
17,148.9	74.2124	17,148.9	62.9333	17,148.9	78.6211	17,148.9	66.9502	17,148.9	55.3051	17,148.9	73.947
17,752.4	75.8512	17,752.4	63.3201	17,752.4	80.3559	17,752.4	67.3614	17,752.4	52.9818	17,752.4	75.5662
18,379.4	74.9559	18,379.4	60.416	18,379.4	79.7619	18,379.4	63.5579	18,379.4	49.7574	18,379.4	74.787
19,026.9	73.0447	19,026.9	56.9552	19,026.9	78.1971	19,026.9	59.9561	19,026.9	49.4527	19,026.9	73.1282
19,697.8	71.3468	19,697.8	53.4831	19,697.8	77.2183	19,697.8	57.1221	19,697.8	48.9889	19,697.8	72.04
19,999.5	70.6264	19,999.5	52.2489	19,999.5	76.6763	19,999.5	56.0322	19,999.5	49.3343	19,999.5	71.4739
