"SPL Horizontal"																																																																							
"On-Axis"		"10°"		"-10°"		"20°"		"-20°"		"30°"		"-30°"		"40°"		"-40°"		"50°"		"-50°"		"60°"		"-60°"		"70°"		"-70°"		"80°"		"-80°"		"90°"		"-90°"		"100°"		"-100°"		"110°"		"-110°"		"120°"		"-120°"		"130°"		"-130°"		"140°"		"-140°"		"150°"		"-150°"		"160°"		"-160°"		"170°"		"-170°"		"180°"	
"Frequency [Hz]"	"Sound Pessure Level [dB]  / [2.83V 1m] "	"Frequency [Hz]"	"Sound Pessure Level [dB]  / [2.83V 1m] "	"Frequency [Hz]"	"Sound Pessure Level [dB]  / [2.83V 1m] "	"Frequency [Hz]"	"Sound Pessure Level [dB]  / [2.83V 1m] "	"Frequency [Hz]"	"Sound Pessure Level [dB]  / [2.83V 1m] "	"Frequency [Hz]"	"Sound Pessure Level [dB]  / [2.83V 1m] "	"Frequency [Hz]"	"Sound Pessure Level [dB]  / [2.83V 1m] "	"Frequency [Hz]"	"Sound Pessure Level [dB]  / [2.83V 1m] "	"Frequency [Hz]"	"Sound Pessure Level [dB]  / [2.83V 1m] "	"Frequency [Hz]"	"Sound Pessure Level [dB]  / [2.83V 1m] "	"Frequency [Hz]"	"Sound Pessure Level [dB]  / [2.83V 1m] "	"Frequency [Hz]"	"Sound Pessure Level [dB]  / [2.83V 1m] "	"Frequency [Hz]"	"Sound Pessure Level [dB]  / [2.83V 1m] "	"Frequency [Hz]"	"Sound Pessure Level [dB]  / [2.83V 1m] "	"Frequency [Hz]"	"Sound Pessure Level [dB]  / [2.83V 1m] "	"Frequency [Hz]"	"Sound Pessure Level [dB]  / [2.83V 1m] "	"Frequency [Hz]"	"Sound Pessure Level [dB]  / [2.83V 1m] "	"Frequency [Hz]"	"Sound Pessure Level [dB]  / [2.83V 1m] "	"Frequency [Hz]"	"Sound Pessure Level [dB]  / [2.83V 1m] "	"Frequency [Hz]"	"Sound Pessure Level [dB]  / [2.83V 1m] "	"Frequency [Hz]"	"Sound Pessure Level [dB]  / [2.83V 1m] "	"Frequency [Hz]"	"Sound Pessure Level [dB]  / [2.83V 1m] "	"Frequency [Hz]"	"Sound Pessure Level [dB]  / [2.83V 1m] "	"Frequency [Hz]"	"Sound Pessure Level [dB]  / [2.83V 1m] "	"Frequency [Hz]"	"Sound Pessure Level [dB]  / [2.83V 1m] "	"Frequency [Hz]"	"Sound Pessure Level [dB]  / [2.83V 1m] "	"Frequency [Hz]"	"Sound Pessure Level [dB]  / [2.83V 1m] "	"Frequency [Hz]"	"Sound Pessure Level [dB]  / [2.83V 1m] "	"Frequency [Hz]"	"Sound Pessure Level [dB]  / [2.83V 1m] "	"Frequency [Hz]"	"Sound Pessure Level [dB]  / [2.83V 1m] "	"Frequency [Hz]"	"Sound Pessure Level [dB]  / [2.83V 1m] "	"Frequency [Hz]"	"Sound Pessure Level [dB]  / [2.83V 1m] "	"Frequency [Hz]"	"Sound Pessure Level [dB]  / [2.83V 1m] "	"Frequency [Hz]"	"Sound Pessure Level [dB]  / [2.83V 1m] "	"Frequency [Hz]"	"Sound Pessure Level [dB]  / [2.83V 1m] "	"Frequency [Hz]"	"Sound Pessure Level [dB]  / [2.83V 1m] "
20.5078	39.9787	20.5078	39.738	20.5078	39.9146	20.5078	39.1714	20.5078	39.5412	20.5078	38.2281	20.5078	38.828	20.5078	36.8223	20.5078	37.7144	20.5078	34.8518	20.5078	36.1117	20.5078	32.4416	20.5078	33.979	20.5078	31.1736	20.5078	31.8639	20.5078	33.2786	20.5078	32.0347	20.5078	36.5903	20.5078	34.8707	20.5078	39.4704	20.5078	37.9678	20.5078	41.7772	20.5078	40.5492	20.5078	43.6116	20.5078	42.6197	20.5078	45.0622	20.5078	44.2704	20.5078	46.1866	20.5078	45.5713	20.5078	47.0201	20.5078	46.567	20.5078	47.5834	20.5078	47.2846	20.5078	47.888	20.5078	47.7395	20.5078	47.9397
21.9727	40.5997	21.9727	40.3825	21.9727	40.4989	21.9727	39.8332	21.9727	40.0727	21.9727	38.921	21.9727	39.2916	21.9727	37.6221	21.9727	38.109	21.9727	36.0382	21.9727	36.5058	21.9727	34.8099	21.9727	34.7286	21.9727	35.3079	21.9727	33.9684	21.9727	37.5528	21.9727	35.5567	21.9727	40.1743	21.9727	38.3212	21.9727	42.5181	21.9727	40.9697	21.9727	44.4808	21.9727	43.2068	21.9727	46.0909	21.9727	45.0471	21.9727	47.3894	21.9727	46.545	21.9727	48.4077	21.9727	47.7442	21.9727	49.1665	21.9727	48.6738	21.9727	49.6783	21.9727	49.3515	21.9727	49.9504	21.9727	49.7874	21.9727	49.9865
23.4375	43.0002	23.4375	42.7722	23.4375	42.952	23.4375	42.2532	23.4375	42.6268	23.4375	41.4134	23.4375	42.0086	23.4375	40.2192	23.4375	41.0711	23.4375	38.6919	23.4375	39.8004	23.4375	37.1475	23.4375	38.2934	23.4375	36.6556	23.4375	37.0644	23.4375	38.1151	23.4375	37.2278	23.4375	40.5588	23.4375	39.0411	23.4375	42.9506	23.4375	41.4143	23.4375	44.9958	23.4375	43.6322	23.4375	46.6773	23.4375	45.5199	23.4375	48.0294	23.4375	47.0751	23.4375	49.085	23.4375	48.3266	23.4375	49.8671	23.4375	49.3	23.4375	50.3905	23.4375	50.0127	23.4375	50.6638	23.4375	50.4748	23.4375	50.6914
24.9023	44.3944	24.9023	44.2037	24.9023	44.3337	24.9023	43.756	24.9023	44.02	24.9023	43.045	24.9023	43.4462	24.9023	42.0858	24.9023	42.6097	24.9023	40.985	24.9023	41.5492	24.9023	40.1006	24.9023	40.4486	24.9023	40.1043	24.9023	39.8165	24.9023	41.3262	24.9023	40.3205	24.9023	43.2381	24.9023	41.9189	24.9023	45.2261	24.9023	43.9261	24.9023	47.0193	24.9023	45.8627	24.9023	48.5468	24.9023	47.5619	24.9023	49.8041	24.9023	48.9912	24.9023	50.8017	24.9023	50.156	24.9023	51.5503	24.9023	51.068	24.9023	52.0576	24.9023	51.7367	24.9023	52.3284	24.9023	52.168	24.9023	52.3649
26.3672	45.8945	26.3672	45.7231	26.3672	45.8394	26.3672	45.3246	26.3672	45.558	26.3672	44.7047	26.3672	45.0515	26.3672	43.8996	26.3672	44.3345	26.3672	43.036	26.3672	43.4711	26.3672	42.4287	26.3672	42.6532	26.3672	42.5532	26.3672	42.2831	26.3672	43.6082	26.3672	42.7899	26.3672	45.2446	26.3672	44.1336	26.3672	47.0078	26.3672	45.8589	26.3672	48.6485	26.3672	47.5881	26.3672	50.0758	26.3672	49.1498	26.3672	51.2663	26.3672	50.489	26.3672	52.2188	26.3672	51.5941	26.3672	52.937	26.3672	52.4667	26.3672	53.4249	26.3672	53.1103	26.3672	53.685	26.3672	53.5273	26.3672	53.7188
27.832	47.6932	27.832	47.5325	27.832	47.6513	27.832	47.1699	27.832	47.4077	27.832	46.6148	27.832	46.9669	27.832	45.9044	27.832	46.3469	27.832	45.1495	27.832	45.607	27.832	44.6006	27.832	44.9012	27.832	44.6301	27.832	44.5313	27.832	45.4455	27.832	44.8415	27.832	46.8391	27.832	45.8891	27.832	48.4338	27.832	47.3716	27.832	49.9728	27.832	48.9486	27.832	51.3402	27.832	50.4237	27.832	52.4948	27.832	51.7144	27.832	53.4249	27.832	52.7926	27.832	54.1287	27.832	53.6503	27.832	54.6073	27.832	54.2863	27.832	54.8615	27.832	54.7004	27.832	54.8923
29.2969	49.4939	29.2969	49.3573	29.2969	49.4585	29.2969	49.0531	29.2969	49.2522	29.2969	48.5972	29.2969	48.8832	29.2969	48.0329	29.2969	48.375	29.2969	47.4611	29.2969	47.787	29.2969	47.0735	29.2969	47.2479	29.2969	47.1235	29.2969	46.9777	29.2969	47.7608	29.2969	47.2157	29.2969	48.8809	29.2969	48.0308	29.2969	50.2289	29.2969	49.2479	29.2969	51.5872	29.2969	50.6125	29.2969	52.8314	29.2969	51.9402	29.2969	53.9031	29.2969	53.1336	29.2969	54.7772	29.2969	54.1481	29.2969	55.4436	29.2969	54.9649	29.2969	55.8979	29.2969	55.5756	29.2969	56.1382	29.2969	55.9761	29.2969	56.1641
30.7617	51.124	30.7617	51.0016	30.7617	51.0922	30.7617	50.7302	30.7617	50.9075	30.7617	50.3271	30.7617	50.579	30.7617	49.8344	30.7617	50.1309	30.7617	49.3412	30.7617	49.6186	30.7617	49.0063	30.7617	49.1528	30.7617	49.0334	30.7617	48.9126	30.7617	49.5551	30.7617	49.093	30.7617	50.5147	30.7617	49.7696	30.7617	51.7157	30.7617	50.8267	30.7617	52.9636	30.7617	52.0576	30.7617	54.1317	30.7617	53.2891	30.7617	55.1524	30.7617	54.4172	30.7617	55.9931	30.7617	55.3882	30.7617	56.6381	30.7617	56.1762	30.7617	57.0797	30.7617	56.7681	30.7617	57.3141	30.7617	57.1573	30.7617	57.3399
32.2266	52.7782	32.2266	52.6779	32.2266	52.7483	32.2266	52.4547	32.2266	52.5895	32.2266	52.1285	32.2266	52.3122	32.2266	51.7414	32.2266	51.942	32.2266	51.3726	32.2266	51.5311	32.2266	51.147	32.2266	51.1735	32.2266	51.2124	32.2266	51.0079	32.2266	51.6641	32.2266	51.1782	32.2266	52.4719	32.2266	51.7465	32.2266	53.5016	32.2266	52.6423	32.2266	54.6005	32.2266	53.7146	32.2266	55.6538	32.2266	54.8184	32.2266	56.5908	32.2266	55.853	32.2266	57.3718	32.2266	56.7592	32.2266	57.9751	32.2266	57.5042	32.2266	58.3888	32.2266	58.0698	32.2266	58.6064	32.2266	58.4454	32.2266	58.6253
33.6914	54.5106	33.6914	54.4332	33.6914	54.4755	33.6914	54.2498	33.6914	54.3293	33.6914	53.978	33.6914	54.0824	33.6914	53.6531	33.6914	53.7582	33.6914	53.3384	33.6914	53.4022	33.6914	53.1307	33.6914	53.0914	33.6914	53.1464	33.6914	52.9355	33.6914	53.4736	33.6914	53.0504	33.6914	54.1149	33.6914	53.498	33.6914	54.9826	33.6914	54.2425	33.6914	55.9517	33.6914	55.1726	33.6914	56.9119	33.6914	56.1628	33.6914	57.7864	33.6914	57.1148	33.6914	58.5275	33.6914	57.9636	33.6914	59.1067	33.6914	58.6698	33.6914	59.5074	33.6914	59.21	33.6914	59.7204	33.6914	59.5698	33.6914	59.7412
35.1563	56.0385	35.1563	55.9677	35.1563	56.0119	35.1563	55.8059	35.1563	55.8898	35.1563	55.5702	35.1563	55.6832	35.1563	55.294	35.1563	55.4155	35.1563	55.0336	35.1563	55.1291	35.1563	54.8713	35.1563	54.891	35.1563	54.9027	35.1563	54.7912	35.1563	55.1999	35.1563	54.9203	35.1563	55.77	35.1563	55.3272	35.1563	56.5469	35.1563	55.9877	35.1563	57.4279	35.1563	56.8168	35.1563	58.315	35.1563	57.711	35.1563	59.1344	35.1563	58.5819	35.1563	59.8371	35.1563	59.3667	35.1563	60.3921	35.1563	60.0242	35.1563	60.7803	35.1563	60.5283	35.1563	60.9909	35.1563	60.8629	35.1563	61.0185
36.6211	57.71	36.6211	57.64	36.6211	57.6935	36.6211	57.4892	36.6211	57.5922	36.6211	57.2728	36.6211	57.4162	36.6211	57.0199	36.6211	57.1859	36.6211	56.7784	36.6211	56.9371	36.6211	56.6173	36.6211	56.7245	36.6211	56.6176	36.6211	56.621	36.6211	56.8452	36.6211	56.702	36.6211	57.3169	36.6211	57.0162	36.6211	57.9878	36.6211	57.5576	36.6211	58.7735	36.6211	58.2665	36.6211	59.5842	36.6211	59.0574	36.6211	60.3468	36.6211	59.8481	36.6211	61.0091	36.6211	60.5744	36.6211	61.5367	36.6211	61.1913	36.6211	61.9079	36.6211	61.6688	36.6211	62.1098	36.6211	61.9877	36.6211	62.1365
38.0859	59.061	38.0859	58.9947	38.0859	59.0508	38.0859	58.8577	38.0859	58.9658	38.0859	58.6653	38.0859	58.8155	38.0859	58.4452	38.0859	58.6194	38.0859	58.2416	38.0859	58.4098	38.0859	58.1159	38.0859	58.2351	38.0859	58.1372	38.0859	58.1572	38.0859	58.3609	38.0859	58.2398	38.0859	58.801	38.0859	58.5251	38.0859	59.4203	38.0859	59.0117	38.0859	60.1467	38.0859	59.6536	38.0859	60.9009	38.0859	60.3788	38.0859	61.6148	38.0859	61.1136	38.0859	62.2381	38.0859	61.7968	38.0859	62.7362	38.0859	62.3831	38.0859	63.0865	38.0859	62.841	38.0859	63.2754	38.0859	63.1497	38.0859	63.2965
39.5508	60.6402	39.5508	60.5908	39.5508	60.627	39.5508	60.4848	39.5508	60.5527	39.5508	60.3363	39.5508	60.4259	39.5508	60.17	39.5508	60.264	39.5508	60.0233	39.5508	60.095	39.5508	59.9454	39.5508	59.9593	39.5508	59.9899	39.5508	59.9071	39.5508	60.1989	39.5508	59.9894	39.5508	60.585	39.5508	60.2412	39.5508	61.1225	39.5508	60.6653	39.5508	61.7571	39.5508	61.2286	39.5508	62.4238	39.5508	61.8743	39.5508	63.0628	39.5508	62.5391	39.5508	63.6264	39.5508	63.1664	39.5508	64.0796	39.5508	63.7118	39.5508	64.3984	39.5508	64.1428	39.5508	64.5679	39.5508	64.4371	39.5508	64.581
41.0156	62.5727	41.0156	62.5278	41.0156	62.5574	41.0156	62.4281	41.0156	62.4824	41.0156	62.285	41.0156	62.3538	41.0156	62.1186	41.0156	62.1844	41.0156	61.9583	41.0156	61.9959	41.0156	61.8439	41.0156	61.8205	41.0156	61.8206	41.0156	61.7009	41.0156	61.9289	41.0156	61.6847	41.0156	62.1897	41.0156	61.8126	41.0156	62.594	41.0156	62.1023	41.0156	63.1038	41.0156	62.5388	41.0156	63.6647	41.0156	63.078	41.0156	64.2201	41.0156	63.6614	41.0156	64.721	41.0156	64.2309	41.0156	65.129	41.0156	64.7379	41.0156	65.417	41.0156	65.1456	41.0156	65.5675	41.0156	65.4287	41.0156	65.5717
42.4805	63.6222	42.4805	63.5876	42.4805	63.6019	42.4805	63.5027	42.4805	63.5275	42.4805	63.3784	42.4805	63.4057	42.4805	63.2334	42.4805	63.2497	42.4805	63.0953	42.4805	63.0813	42.4805	63.0008	42.4805	62.9317	42.4805	62.9917	42.4805	62.8411	42.4805	63.1056	42.4805	62.8529	42.4805	63.3626	42.4805	63.0021	42.4805	63.7554	42.4805	63.3021	42.4805	64.2498	42.4805	63.7365	42.4805	64.7951	42.4805	64.2638	42.4805	65.3371	42.4805	64.83	42.4805	65.8278	42.4805	65.3809	42.4805	66.2293	42.4805	65.8709	42.4805	66.5142	42.4805	66.2645	42.4805	66.6651	42.4805	66.537	42.4805	66.6729
43.9453	64.8166	43.9453	64.7885	43.9453	64.7934	43.9453	64.7132	43.9453	64.7199	43.9453	64.601	43.9453	64.6028	43.9453	64.4689	43.9453	64.4548	43.9453	64.3424	43.9453	64.2965	43.9453	64.2551	43.9453	64.1571	43.9453	64.2454	43.9453	64.0738	43.9453	64.3481	43.9453	64.086	43.9453	64.583	43.9453	64.226	43.9453	64.9455	43.9453	64.5066	43.9453	65.4061	43.9453	64.914	43.9453	65.9185	43.9453	65.4109	43.9453	66.4317	43.9453	65.9471	43.9453	66.8993	43.9453	66.4716	43.9453	67.2837	43.9453	66.9399	43.9453	67.5574	43.9453	67.3175	43.9453	67.7027	43.9453	67.5795	43.9453	67.7103
45.4102	66.1272	45.4102	66.1039	45.4102	66.1082	45.4102	66.0423	45.4102	66.0477	45.4102	65.9517	45.4102	65.9518	45.4102	65.8476	45.4102	65.8318	45.4102	65.752	45.4102	65.7057	45.4102	65.6934	45.4102	65.5986	45.4102	65.7032	45.4102	65.5412	45.4102	65.8095	45.4102	65.5659	45.4102	66.028	45.4102	65.6991	45.4102	66.3556	45.4102	65.9519	45.4102	66.7686	45.4102	66.3147	45.4102	67.2289	45.4102	66.7581	45.4102	67.6926	45.4102	67.2402	45.4102	68.1178	45.4102	67.7161	45.4102	68.4693	45.4102	68.145	45.4102	68.7206	45.4102	68.4934	45.4102	68.8536	45.4102	68.7368	45.4102	68.8594
46.875	67.4243	46.875	67.4063	46.875	67.4041	46.875	67.3536	46.875	67.3468	46.875	67.2743	46.875	67.2578	46.875	67.1816	46.875	67.1474	46.875	67.0947	46.875	67.0317	46.875	67.038	46.875	66.9327	46.875	67.0389	46.875	66.8771	46.875	67.1225	46.875	66.8936	46.875	67.3047	46.875	67.0056	46.875	67.5857	46.875	67.2246	46.875	67.9478	46.875	67.5441	46.875	68.3587	46.875	67.9398	46.875	68.7792	46.875	68.3754	46.875	69.1699	46.875	68.8098	46.875	69.4964	46.875	69.2045	46.875	69.7319	46.875	69.5268	46.875	69.8581	46.875	69.7524	46.875	69.8653
48.3398	68.6665	48.3398	68.6479	48.3398	68.6476	48.3398	68.5948	48.3398	68.5922	48.3398	68.5145	48.3398	68.5055	48.3398	68.4189	48.3398	68.397	48.3398	68.3255	48.3398	68.2815	48.3398	68.257	48.3398	68.1793	48.3398	68.2392	48.3398	68.1152	48.3398	68.2966	48.3398	68.116	48.3398	68.4464	48.3398	68.2045	48.3398	68.6916	48.3398	68.3932	48.3398	69.0182	48.3398	68.6783	48.3398	69.3976	48.3398	69.0391	48.3398	69.7926	48.3398	69.4422	48.3398	70.1645	48.3398	69.8487	48.3398	70.4787	48.3398	70.2205	48.3398	70.7078	48.3398	70.5254	48.3398	70.8327	48.3398	70.7384	48.3398	70.8433
51.2695	70.8221	51.2695	70.8067	51.2695	70.8104	51.2695	70.7666	51.2695	70.7722	51.2695	70.708	51.2695	70.7118	51.2695	70.6407	51.2695	70.6367	51.2695	70.5786	51.2695	70.5587	51.2695	70.5392	51.2695	70.4932	51.2695	70.5419	51.2695	70.4587	51.2695	70.605	51.2695	70.4746	51.2695	70.7411	51.2695	70.558	51.2695	70.9527	51.2695	70.7185	51.2695	71.2298	51.2695	70.9545	51.2695	71.5506	51.2695	71.2522	51.2695	71.8857	51.2695	71.587	51.2695	72.2029	51.2695	71.9283	51.2695	72.4725	51.2695	72.2444	51.2695	72.6695	51.2695	72.5066	51.2695	72.7765	51.2695	72.6917	51.2695	72.7842
52.7344	71.9391	52.7344	71.9259	52.7344	71.9274	52.7344	71.8903	52.7344	71.8917	52.7344	71.8374	52.7344	71.8356	52.7344	71.7761	52.7344	71.766	52.7344	71.7185	52.7344	71.693	52.7344	71.68	52.7344	71.6304	52.7344	71.6777	52.7344	71.5946	52.7344	71.7281	52.7344	71.6031	52.7344	71.8432	52.7344	71.6714	52.7344	72.0265	52.7344	71.8091	52.7344	72.2706	52.7344	72.0161	52.7344	72.5572	52.7344	72.2813	52.7344	72.8602	52.7344	72.5834	52.7344	73.15	52.7344	72.8947	52.7344	73.3981	52.7344	73.1855	52.7344	73.5805	52.7344	73.4282	52.7344	73.6799	52.7344	73.6005	52.7344	73.6869
54.1992	72.9352	54.1992	72.9224	54.1992	72.9257	54.1992	72.8894	54.1992	72.8945	54.1992	72.8407	54.1992	72.845	54.1992	72.7842	54.1992	72.7834	54.1992	72.7307	54.1992	72.7186	54.1992	72.6938	54.1992	72.6627	54.1992	72.6888	54.1992	72.6302	54.1992	72.7306	54.1992	72.6364	54.1992	72.8304	54.1992	72.6951	54.1992	72.9921	54.1992	72.8154	54.1992	73.2101	54.1992	72.9981	54.1992	73.4688	54.1992	73.2342	54.1992	73.7448	54.1992	73.5055	54.1992	74.0111	54.1992	73.7873	54.1992	74.2407	54.1992	74.0524	54.1992	74.4106	54.1992	74.2747	54.1992	74.504	54.1992	74.4329	54.1992	74.5117
55.6641	73.8854	55.6641	73.8741	55.6641	73.8768	55.6641	73.8445	55.6641	73.8486	55.6641	73.801	55.6641	73.8039	55.6641	73.7505	55.6641	73.7481	55.6641	73.7029	55.6641	73.6894	55.6641	73.6702	55.6641	73.6385	55.6641	73.6662	55.6641	73.6084	55.6641	73.7042	55.6641	73.6128	55.6641	73.7943	55.6641	73.6644	55.6641	73.9406	55.6641	73.7716	55.6641	74.1385	55.6641	73.9359	55.6641	74.3744	55.6641	74.15	55.6641	74.6274	55.6641	74.3981	55.6641	74.8726	55.6641	74.6576	55.6641	75.0848	55.6641	74.9035	55.6641	75.2421	55.6641	75.111	55.6641	75.3282	55.6641	75.2595	55.6641	75.3343
58.5938	75.6864	58.5938	75.6794	58.5938	75.6776	58.5938	75.6579	58.5938	75.6535	58.5938	75.6256	58.5938	75.6163	58.5938	75.5877	58.5938	75.5704	58.5938	75.5517	58.5938	75.522	58.5938	75.5273	58.5938	75.4797	58.5938	75.5249	58.5938	75.4536	58.5938	75.5552	58.5938	75.4548	58.5938	75.6267	58.5938	75.4938	58.5938	75.7435	58.5938	75.578	58.5938	75.9029	58.5938	75.7098	58.5938	76.0953	58.5938	75.8846	58.5938	76.3042	58.5938	76.0904	58.5938	76.5089	58.5938	76.309	58.5938	76.6876	58.5938	76.519	58.5938	76.8205	58.5938	76.6986	58.5938	76.8926	58.5938	76.8287	58.5938	76.8956
60.0586	76.6277	60.0586	76.6224	60.0586	76.6184	60.0586	76.6037	60.0586	76.5951	60.0586	76.5746	60.0586	76.5598	60.0586	76.5397	60.0586	76.5163	60.0586	76.5056	60.0586	76.4705	60.0586	76.4807	60.0586	76.4297	60.0586	76.4744	60.0586	76.4033	60.0586	76.4966	60.0586	76.4012	60.0586	76.5552	60.0586	76.4328	60.0586	76.6547	60.0586	76.5054	60.0586	76.7937	60.0586	76.6214	60.0586	76.9643	60.0586	76.7773	60.0586	77.152	60.0586	76.9626	60.0586	77.3381	60.0586	77.161	60.0586	77.5021	60.0586	77.3525	60.0586	77.6252	60.0586	77.5169	60.0586	77.6929	60.0586	77.636	60.0586	77.6968
62.9883	78.3082	62.9883	78.303	62.9883	78.3032	62.9883	78.2884	62.9883	78.2883	62.9883	78.2667	62.9883	78.2651	62.9883	78.2417	62.9883	78.2368	62.9883	78.2185	62.9883	78.2078	62.9883	78.2036	62.9883	78.1837	62.9883	78.2046	62.9883	78.1717	62.9883	78.2291	62.9883	78.1793	62.9883	78.2835	62.9883	78.2135	62.9883	78.3713	62.9883	78.28	62.9883	78.4919	62.9883	78.3806	62.9883	78.6389	62.9883	78.5128	62.9883	78.8007	62.9883	78.6685	62.9883	78.9618	62.9883	78.8347	62.9883	79.1047	62.9883	78.9951	62.9883	79.2132	62.9883	79.1326	62.9883	79.2744	62.9883	79.2317	62.9883	79.2808
64.4531	78.9486	64.4531	78.9458	64.4531	78.9436	64.4531	78.9361	64.4531	78.931	64.4531	78.9212	64.4531	78.9124	64.4531	78.9043	64.4531	78.8903	64.4531	78.8898	64.4531	78.8683	64.4531	78.883	64.4531	78.8513	64.4531	78.8903	64.4531	78.8452	64.4531	78.918	64.4531	78.8563	64.4531	78.9716	64.4531	78.8909	64.4531	79.0543	64.4531	78.9537	64.4531	79.1653	64.4531	79.0467	64.4531	79.2993	64.4531	79.1678	64.4531	79.4463	64.4531	79.3102	64.4531	79.5923	64.4531	79.4625	64.4531	79.7217	64.4531	79.6103	64.4531	79.8195	64.4531	79.7378	64.4531	79.8737	64.4531	79.8305	64.4531	79.8777
67.3828	79.8915	67.3828	79.8909	67.3828	79.8875	67.3828	79.886	67.3828	79.879	67.3828	79.8783	67.3828	79.8671	67.3828	79.8696	67.3828	79.8532	67.3828	79.8629	67.3828	79.84	67.3828	79.862	67.3828	79.8307	67.3828	79.8714	67.3828	79.8297	67.3828	79.8957	67.3828	79.8414	67.3828	79.9394	67.3828	79.8706	67.3828	80.0051	67.3828	79.9213	67.3828	80.093	67.3828	79.9954	67.3828	80.1997	67.3828	80.092	67.3828	80.3176	67.3828	80.2061	67.3828	80.4359	67.3828	80.3293	67.3828	80.5417	67.3828	80.4499	67.3828	80.6223	67.3828	80.5547	67.3828	80.6673	67.3828	80.6314	67.3828	80.6705
68.8477	80.2561	68.8477	80.2558	68.8477	80.2527	68.8477	80.2522	68.8477	80.2457	68.8477	80.2462	68.8477	80.236	68.8477	80.2396	68.8477	80.2249	68.8477	80.2346	68.8477	80.2144	68.8477	80.2344	68.8477	80.2073	68.8477	80.2429	68.8477	80.2072	68.8477	80.2641	68.8477	80.218	68.8477	80.3019	68.8477	80.2439	68.8477	80.3591	68.8477	80.2884	68.8477	80.436	68.8477	80.3535	68.8477	80.5298	68.8477	80.4385	68.8477	80.6344	68.8477	80.5394	68.8477	80.74	68.8477	80.6487	68.8477	80.8351	68.8477	80.756	68.8477	80.9079	68.8477	80.8495	68.8477	80.949	68.8477	80.918	68.8477	80.9526
